OOIBase32 Version 2.0.1.4 Data File
++++++++++++++++++++++++++++++++++++
Date: 11-03-2025, 10:11:30
User: Valued Ocean Optics Customer
Spectrometer Serial Number: HR2B216
Spectrometer Channel: Master
Integration Time (msec): 5
Spectra Averaged: 80
Boxcar Smoothing: 0
Correct for Electrical Dark: Disabled
Time Normalized: Disabled
Dual-beam Reference: Disabled
Reference Channel: Master
Temperature: Not acquired
Spectrometer Type: S2000
ADC Type: HR2000
Number of Pixels in File: 2048
Graph Title: 
>>>>>Begin Spectral Data<<<<<
373.12	0.000
373.35	-149.997
373.59	16.326
373.82	-4.878
374.06	-215.796
374.29	23.729
374.53	18.518
374.76	73.334
375.00	-5.881
375.23	-150.061
375.47	100.000
375.70	53.226
375.94	9.375
376.17	139.999
376.40	67.648
376.64	42.104
376.87	75.008
377.11	-14.286
377.34	63.890
377.58	37.143
377.81	51.282
378.05	45.714
378.28	-4.761
378.52	-27.274
378.75	91.892
378.99	200.000
379.22	-53.125
379.45	89.333
379.69	78.751
379.92	62.295
380.16	33.333
380.39	26.921
380.63	32.927
380.86	13.333
381.10	102.597
381.33	48.077
381.56	-62.071
381.80	81.481
382.03	153.333
382.27	107.407
382.50	119.231
382.74	-344.432
382.97	1366.714
383.21	4.999
383.44	148.147
383.67	100.000
383.91	66.667
384.14	19.995
384.38	86.364
384.61	79.747
384.84	226.312
385.08	10.000
385.31	-213.644
385.55	285.717
385.78	2600.611
386.02	92.857
386.25	63.954
386.48	32.000
386.72	799.939
386.95	112.765
387.19	81.132
387.42	15.790
387.65	18.368
387.89	-57.141
388.12	75.363
388.36	27.499
388.59	-13.699
388.82	81.539
389.06	61.016
389.29	73.810
389.53	21.333
389.76	-1.335
389.99	-1533.700
390.23	-3.033
390.46	-23.407
390.70	-4.837
390.93	123.076
391.16	-65.907
391.40	32.352
391.63	58.824
391.87	-14.291
392.10	86.047
392.33	70.491
392.57	82.858
392.80	-58.335
393.03	33.335
393.27	60.465
393.50	66.039
393.74	55.556
393.97	38.888
394.20	-2.634
394.44	90.906
394.67	28.946
394.90	-9.377
395.14	4.001
395.37	10.716
395.60	-25.609
395.84	94.596
396.07	-2.705
396.31	51.613
396.54	58.426
396.77	36.065
397.01	0.000
397.24	33.929
397.47	39.062
397.71	112.821
397.94	-62.164
398.17	70.588
398.41	-121.054
398.64	21.310
398.87	32.291
399.11	42.857
399.34	50.000
399.57	26.000
399.81	54.443
400.04	47.946
400.27	43.200
400.51	31.999
400.74	35.850
400.97	86.813
401.21	37.500
401.44	56.250
401.67	19.718
401.91	27.702
402.14	39.260
402.37	52.349
402.61	74.227
402.84	39.694
403.07	47.594
403.31	73.125
403.54	43.396
403.77	42.156
404.00	51.260
404.24	18.902
404.47	39.161
404.70	24.812
404.94	62.400
405.17	54.838
405.40	52.137
405.64	22.619
405.87	62.893
406.10	50.000
406.34	57.038
406.57	84.496
406.80	37.909
407.03	30.520
407.27	37.350
407.50	31.858
407.73	58.721
407.97	56.545
408.20	53.889
408.43	58.031
408.66	58.242
408.90	74.634
409.13	38.247
409.36	48.496
409.60	51.667
409.83	33.051
410.06	71.119
410.29	57.621
410.53	54.864
410.76	39.034
410.99	35.402
411.22	49.643
411.46	50.000
411.69	59.385
411.92	54.696
412.16	48.772
412.39	67.433
412.62	65.926
412.85	64.634
413.09	54.308
413.32	54.232
413.55	48.579
413.78	58.750
414.02	46.956
414.25	59.722
414.48	35.671
414.71	34.344
414.95	56.757
415.18	45.060
415.41	60.437
415.64	47.922
415.88	43.514
416.11	51.635
416.34	43.562
416.57	48.000
416.80	48.701
417.04	52.152
417.27	44.076
417.50	54.920
417.73	59.305
417.97	50.000
418.20	50.373
418.43	47.531
418.66	56.033
418.90	50.000
419.13	53.138
419.36	50.929
419.59	56.155
419.82	54.015
420.06	53.833
420.29	48.240
420.52	55.337
420.75	55.717
420.98	52.373
421.22	51.687
421.45	53.377
421.68	49.534
421.91	50.241
422.15	49.377
422.38	46.191
422.61	51.415
422.84	56.087
423.07	55.371
423.31	48.950
423.54	51.268
423.77	53.527
424.00	45.985
424.23	49.183
424.46	53.005
424.70	52.315
424.93	57.222
425.16	48.684
425.39	50.752
425.62	54.220
425.86	50.584
426.09	41.615
426.32	47.779
426.55	47.749
426.78	49.113
427.01	50.569
427.25	47.414
427.48	46.027
427.71	48.783
427.94	54.157
428.17	48.580
428.40	49.637
428.64	53.708
428.87	49.332
429.10	51.580
429.33	48.513
429.56	53.085
429.79	52.952
430.03	49.602
430.26	46.811
430.49	50.514
430.72	44.996
430.95	47.889
431.18	49.758
431.42	49.515
431.65	46.404
431.88	52.099
432.11	49.827
432.34	49.956
432.57	46.429
432.80	48.206
433.04	50.125
433.27	50.569
433.50	49.008
433.73	49.499
433.96	50.500
434.19	47.491
434.42	46.933
434.65	50.698
434.89	48.349
435.12	50.933
435.35	49.762
435.58	45.964
435.81	48.148
436.04	50.278
436.27	52.435
436.50	46.461
436.74	47.020
436.97	47.510
437.20	47.486
437.43	47.872
437.66	47.011
437.89	50.611
438.12	50.029
438.35	48.730
438.58	48.278
438.82	45.370
439.05	48.652
439.28	50.373
439.51	46.667
439.74	46.846
439.97	49.297
440.20	45.064
440.43	44.518
440.66	45.574
440.89	49.216
441.12	46.436
441.36	47.269
441.59	47.902
441.82	49.270
442.05	49.579
442.28	44.828
442.51	48.413
442.74	48.047
442.97	47.879
443.20	48.237
443.43	46.373
443.66	48.534
443.89	44.116
444.13	46.853
444.36	49.510
444.59	46.650
444.82	46.921
445.05	50.224
445.28	47.289
445.51	47.768
445.74	48.307
445.97	49.582
446.20	46.755
446.43	45.011
446.66	48.535
446.89	47.364
447.12	47.293
447.35	47.454
447.58	47.352
447.81	47.407
448.05	47.617
448.28	47.787
448.51	48.087
448.74	47.069
448.97	48.034
449.20	46.190
449.43	49.165
449.66	46.681
449.89	47.276
450.12	47.155
450.35	47.186
450.58	46.074
450.81	46.922
451.04	47.787
451.27	46.978
451.50	47.388
451.73	44.764
451.96	44.728
452.19	46.301
452.42	46.781
452.65	47.305
452.88	47.432
453.11	47.435
453.34	47.044
453.57	47.895
453.80	45.219
454.03	47.639
454.26	47.740
454.49	47.357
454.72	45.646
454.95	46.053
455.18	46.029
455.41	46.014
455.64	46.926
455.87	45.661
456.10	46.765
456.33	45.739
456.56	46.948
456.79	45.354
457.02	44.461
457.25	46.737
457.48	45.027
457.71	45.237
457.94	45.746
458.17	46.369
458.40	46.538
458.63	46.132
458.86	45.905
459.09	46.423
459.32	46.515
459.55	45.829
459.78	45.726
460.01	46.889
460.24	45.464
460.47	46.937
460.70	46.094
460.93	46.165
461.16	45.216
461.39	45.747
461.62	45.659
461.85	45.598
462.08	47.155
462.31	45.789
462.54	46.493
462.77	45.264
463.00	45.684
463.22	45.261
463.45	45.471
463.68	46.379
463.91	46.135
464.14	45.746
464.37	45.951
464.60	45.812
464.83	45.145
465.06	46.015
465.29	45.285
465.52	46.237
465.75	45.543
465.98	46.018
466.21	46.308
466.44	45.022
466.67	45.571
466.90	45.110
467.12	45.027
467.35	45.818
467.58	44.756
467.81	45.110
468.04	45.560
468.27	44.668
468.50	44.999
468.73	44.037
468.96	45.630
469.19	45.701
469.42	45.771
469.65	45.387
469.87	45.768
470.10	44.661
470.33	44.879
470.56	45.303
470.79	44.550
471.02	45.548
471.25	45.161
471.48	45.378
471.71	44.519
471.94	45.465
472.17	45.196
472.39	44.569
472.62	45.177
472.85	44.981
473.08	44.786
473.31	44.836
473.54	45.783
473.77	44.186
474.00	44.541
474.23	45.072
474.45	45.320
474.68	45.184
474.91	44.999
475.14	44.474
475.37	44.588
475.60	44.711
475.83	44.856
476.06	45.113
476.28	44.057
476.51	44.800
476.74	44.705
476.97	44.792
477.20	44.613
477.43	44.916
477.66	44.736
477.88	44.524
478.11	45.051
478.34	45.072
478.57	45.667
478.80	44.560
479.03	45.525
479.26	44.453
479.48	44.658
479.71	44.930
479.94	44.599
480.17	44.267
480.40	44.769
480.63	44.767
480.86	45.160
481.08	45.109
481.31	45.181
481.54	45.129
481.77	45.309
482.00	44.588
482.23	44.624
482.45	44.485
482.68	44.579
482.91	44.796
483.14	44.836
483.37	44.681
483.60	44.532
483.82	44.290
484.05	44.553
484.28	44.155
484.51	44.616
484.74	44.614
484.96	44.545
485.19	43.949
485.42	43.931
485.65	44.741
485.88	44.572
486.10	44.513
486.33	44.731
486.56	44.206
486.79	44.374
487.02	44.438
487.25	44.126
487.47	44.738
487.70	44.395
487.93	44.834
488.16	44.265
488.39	44.498
488.61	44.495
488.84	44.213
489.07	44.333
489.30	44.216
489.52	43.608
489.75	44.450
489.98	44.328
490.21	44.253
490.44	44.320
490.66	44.010
490.89	44.438
491.12	43.760
491.35	44.020
491.57	44.016
491.80	44.105
492.03	43.887
492.26	43.490
492.49	43.782
492.71	43.670
492.94	44.025
493.17	44.125
493.40	43.781
493.62	44.254
493.85	44.034
494.08	43.753
494.31	43.801
494.53	43.913
494.76	43.992
494.99	43.819
495.22	43.714
495.44	44.081
495.67	44.457
495.90	43.645
496.13	43.904
496.35	43.888
496.58	43.955
496.81	44.097
497.04	43.944
497.26	43.899
497.49	44.240
497.72	43.759
497.95	43.790
498.17	43.669
498.40	43.961
498.63	44.119
498.85	43.949
499.08	44.013
499.31	43.710
499.54	43.922
499.76	43.937
499.99	43.709
500.22	43.455
500.44	43.498
500.67	43.879
500.90	43.889
501.13	43.736
501.35	43.854
501.58	43.649
501.81	43.514
502.03	43.588
502.26	43.513
502.49	43.621
502.72	43.503
502.94	43.632
503.17	43.734
503.40	44.059
503.62	44.031
503.85	44.163
504.08	44.386
504.30	44.368
504.53	44.482
504.76	45.244
504.98	44.993
505.21	45.316
505.44	45.132
505.67	45.614
505.89	45.756
506.12	46.051
506.35	46.740
506.57	47.410
506.80	47.373
507.03	48.009
507.25	48.628
507.48	49.168
507.71	49.723
507.93	49.658
508.16	50.921
508.39	51.387
508.61	52.210
508.84	52.510
509.07	53.817
509.29	55.206
509.52	56.005
509.75	57.003
509.97	57.518
510.20	58.976
510.43	59.906
510.65	60.803
510.88	61.968
511.10	62.694
511.33	63.902
511.56	64.430
511.78	65.926
512.01	66.520
512.24	67.204
512.46	67.858
512.69	68.637
512.92	69.660
513.14	69.854
513.37	71.010
513.59	70.759
513.82	70.968
514.05	71.557
514.27	71.979
514.50	71.921
514.73	72.622
514.95	73.117
515.18	73.277
515.40	74.182
515.63	74.629
515.86	75.024
516.08	75.476
516.31	75.942
516.54	76.169
516.76	76.512
516.99	77.073
517.21	76.963
517.44	77.005
517.67	77.633
517.89	77.718
518.12	78.068
518.34	78.272
518.57	78.560
518.80	78.389
519.02	78.377
519.25	77.966
519.47	77.788
519.70	78.277
519.93	77.784
520.15	77.478
520.38	77.589
520.60	77.100
520.83	77.464
521.05	77.028
521.28	77.272
521.51	77.323
521.73	77.239
521.96	77.686
522.18	77.682
522.41	77.518
522.63	77.266
522.86	77.665
523.09	77.733
523.31	77.880
523.54	77.872
523.76	77.847
523.99	77.870
524.21	77.961
524.44	78.079
524.67	78.192
524.89	77.911
525.12	78.590
525.34	78.433
525.57	78.778
525.79	78.743
526.02	78.885
526.24	78.863
526.47	78.848
526.69	78.605
526.92	78.551
527.15	79.013
527.37	79.131
527.60	78.961
527.82	79.173
528.05	79.542
528.27	79.388
528.50	79.472
528.72	79.581
528.95	79.568
529.17	79.026
529.40	78.995
529.62	79.074
529.85	79.292
530.07	79.111
530.30	78.916
530.52	78.830
530.75	78.795
530.98	78.825
531.20	78.830
531.43	78.307
531.65	78.449
531.88	78.023
532.10	78.114
532.33	78.010
532.55	77.926
532.78	77.808
533.00	78.108
533.23	77.891
533.45	78.332
533.68	77.818
533.90	77.561
534.13	78.088
534.35	78.143
534.58	77.978
534.80	77.670
535.03	77.531
535.25	77.697
535.47	78.307
535.70	78.404
535.92	78.367
536.15	78.394
536.37	78.319
536.60	78.280
536.82	78.151
537.05	78.639
537.27	79.036
537.50	78.785
537.72	78.593
537.95	79.094
538.17	78.891
538.40	79.411
538.62	79.154
538.85	79.280
539.07	79.346
539.29	79.011
539.52	78.977
539.74	78.998
539.97	79.045
540.19	79.164
540.42	79.383
540.64	79.481
540.87	79.312
541.09	79.325
541.32	79.671
541.54	79.557
541.76	79.866
541.99	79.285
542.21	79.735
542.44	79.559
542.66	78.684
542.89	78.725
543.11	78.923
543.33	78.360
543.56	78.551
543.78	78.628
544.01	78.663
544.23	78.609
544.46	78.956
544.68	78.914
544.90	78.583
545.13	78.467
545.35	78.696
545.58	78.484
545.80	78.472
546.03	78.554
546.25	78.015
546.47	77.891
546.70	78.077
546.92	78.016
547.15	78.108
547.37	78.335
547.59	77.483
547.82	78.045
548.04	78.442
548.27	78.451
548.49	78.560
548.71	78.402
548.94	78.220
549.16	77.750
549.39	77.987
549.61	77.732
549.83	78.010
550.06	77.987
550.28	77.984
550.50	78.235
550.73	78.548
550.95	78.352
551.18	79.057
551.40	78.803
551.62	78.822
551.85	78.472
552.07	79.106
552.29	78.515
552.52	78.943
552.74	79.234
552.97	79.254
553.19	79.508
553.41	79.488
553.64	79.784
553.86	80.411
554.08	79.406
554.31	79.721
554.53	79.412
554.75	79.891
554.98	79.723
555.20	79.648
555.42	79.664
555.65	79.640
555.87	80.063
556.10	79.680
556.32	79.749
556.54	79.992
556.77	80.328
556.99	80.333
557.21	79.746
557.44	79.683
557.66	79.374
557.88	79.929
558.11	80.221
558.33	80.014
558.55	79.866
558.78	79.758
559.00	80.058
559.22	79.562
559.44	80.067
559.67	80.139
559.89	79.850
560.11	79.979
560.34	79.705
560.56	79.994
560.78	79.716
561.01	79.919
561.23	79.187
561.45	79.121
561.68	79.110
561.90	78.759
562.12	78.658
562.35	78.758
562.57	79.006
562.79	78.912
563.01	79.082
563.24	78.961
563.46	78.915
563.68	78.904
563.91	79.085
564.13	78.703
564.35	79.083
564.57	79.114
564.80	79.132
565.02	78.931
565.24	79.441
565.47	79.589
565.69	79.592
565.91	79.422
566.13	79.246
566.36	79.346
566.58	78.948
566.80	79.008
567.02	79.611
567.25	79.393
567.47	79.534
567.69	79.088
567.92	79.198
568.14	79.210
568.36	79.077
568.58	79.243
568.81	78.985
569.03	79.042
569.25	79.160
569.47	79.532
569.70	79.379
569.92	79.561
570.14	79.593
570.36	79.507
570.59	79.203
570.81	79.880
571.03	79.902
571.25	80.016
571.47	80.084
571.70	80.070
571.92	79.836
572.14	80.053
572.36	79.830
572.59	80.061
572.81	80.548
573.03	81.114
573.25	80.259
573.48	80.736
573.70	80.761
573.92	80.264
574.14	80.968
574.36	80.370
574.59	80.601
574.81	80.657
575.03	80.739
575.25	80.480
575.47	80.167
575.70	80.146
575.92	80.275
576.14	80.386
576.36	80.427
576.59	80.849
576.81	80.550
577.03	80.558
577.25	80.724
577.47	80.535
577.69	80.730
577.92	80.736
578.14	80.489
578.36	80.606
578.58	80.605
578.80	80.776
579.03	81.124
579.25	80.524
579.47	80.529
579.69	80.462
579.91	80.404
580.14	80.278
580.36	80.599
580.58	80.492
580.80	81.048
581.02	80.417
581.24	80.265
581.47	80.469
581.69	80.654
581.91	81.102
582.13	80.561
582.35	80.378
582.57	80.563
582.79	81.075
583.02	80.624
583.24	80.682
583.46	80.800
583.68	80.488
583.90	80.945
584.12	80.639
584.35	80.111
584.57	79.879
584.79	79.997
585.01	79.984
585.23	80.569
585.45	80.874
585.67	81.282
585.90	80.928
586.12	80.581
586.34	80.414
586.56	80.405
586.78	80.484
587.00	80.131
587.22	80.283
587.44	79.719
587.67	79.927
587.89	80.005
588.11	80.047
588.33	80.148
588.55	80.574
588.77	80.872
588.99	80.660
589.21	80.586
589.43	80.468
589.66	80.725
589.88	80.303
590.10	80.561
590.32	80.572
590.54	80.875
590.76	80.815
590.98	80.746
591.20	80.929
591.42	80.741
591.64	80.645
591.87	80.841
592.09	81.103
592.31	81.000
592.53	81.356
592.75	81.076
592.97	80.785
593.19	80.690
593.41	80.807
593.63	81.078
593.85	80.919
594.07	80.741
594.29	81.172
594.52	81.133
594.74	80.699
594.96	81.085
595.18	81.165
595.40	81.400
595.62	81.323
595.84	81.215
596.06	81.456
596.28	81.213
596.50	81.075
596.72	80.966
596.94	80.840
597.16	80.910
597.38	80.959
597.60	81.566
597.82	81.223
598.05	81.415
598.27	81.329
598.49	81.143
598.71	81.229
598.93	81.164
599.15	81.177
599.37	81.341
599.59	81.229
599.81	81.401
600.03	81.417
600.25	81.468
600.47	81.447
600.69	81.557
600.91	81.485
601.13	81.657
601.35	81.554
601.57	81.371
601.79	81.268
602.01	81.549
602.23	81.999
602.45	81.564
602.67	81.103
602.89	81.014
603.11	81.241
603.33	81.208
603.55	81.604
603.77	81.280
603.99	81.567
604.21	81.387
604.43	81.283
604.65	81.326
604.87	80.971
605.09	80.863
605.31	80.866
605.53	80.634
605.75	80.857
605.97	80.855
606.19	80.867
606.41	80.642
606.63	81.040
606.85	80.950
607.07	80.662
607.29	81.071
607.51	81.136
607.73	81.026
607.95	80.876
608.17	80.792
608.39	80.817
608.61	80.967
608.83	80.952
609.05	80.837
609.27	81.026
609.49	80.774
609.71	80.784
609.93	81.092
610.15	81.355
610.37	81.379
610.59	80.922
610.81	80.628
611.03	80.568
611.24	80.742
611.46	80.527
611.68	80.625
611.90	81.187
612.12	81.167
612.34	81.192
612.56	81.385
612.78	80.999
613.00	81.354
613.22	81.379
613.44	81.482
613.66	81.472
613.88	80.828
614.10	80.970
614.32	80.831
614.54	81.196
614.75	80.928
614.97	81.184
615.19	81.569
615.41	81.538
615.63	81.577
615.85	81.749
616.07	81.546
616.29	82.114
616.51	81.732
616.73	81.431
616.95	81.317
617.17	81.249
617.38	81.200
617.60	81.314
617.82	81.336
618.04	81.321
618.26	81.336
618.48	81.392
618.70	81.727
618.92	81.832
619.14	81.582
619.36	81.498
619.57	81.497
619.79	81.742
620.01	81.682
620.23	81.550
620.45	81.153
620.67	81.375
620.89	81.616
621.11	80.872
621.33	81.389
621.54	81.472
621.76	81.468
621.98	81.641
622.20	81.483
622.42	81.561
622.64	81.599
622.86	82.055
623.07	81.802
623.29	81.425
623.51	81.472
623.73	81.718
623.95	81.721
624.17	81.756
624.39	81.745
624.60	81.692
624.82	81.710
625.04	81.695
625.26	81.732
625.48	81.531
625.70	81.622
625.92	81.738
626.13	81.637
626.35	81.881
626.57	81.694
626.79	81.463
627.01	81.778
627.23	82.162
627.44	81.658
627.66	81.766
627.88	81.579
628.10	81.811
628.32	81.575
628.54	81.237
628.75	81.465
628.97	81.534
629.19	81.657
629.41	81.784
629.63	82.062
629.84	81.862
630.06	82.027
630.28	81.700
630.50	81.435
630.72	81.493
630.94	82.163
631.15	81.750
631.37	81.690
631.59	81.788
631.81	81.651
632.03	81.892
632.24	81.788
632.46	81.927
632.68	82.089
632.90	81.686
633.11	81.563
633.33	81.839
633.55	81.990
633.77	81.835
633.99	81.883
634.20	81.794
634.42	81.353
634.64	81.476
634.86	81.401
635.08	81.716
635.29	81.331
635.51	81.680
635.73	81.502
635.95	81.243
636.16	80.804
636.38	81.150
636.60	81.919
636.82	81.508
637.03	81.322
637.25	81.112
637.47	81.134
637.69	81.317
637.90	81.018
638.12	81.157
638.34	81.541
638.56	81.530
638.77	81.622
638.99	81.250
639.21	81.799
639.43	82.061
639.64	82.253
639.86	82.429
640.08	82.324
640.30	82.217
640.51	81.950
640.73	82.137
640.95	82.187
641.17	82.169
641.38	82.292
641.60	81.910
641.82	81.839
642.03	81.593
642.25	81.629
642.47	81.930
642.69	81.796
642.90	81.916
643.12	82.031
643.34	81.881
643.55	81.958
643.77	82.289
643.99	82.558
644.21	82.446
644.42	82.405
644.64	82.524
644.86	82.759
645.07	82.562
645.29	82.730
645.51	82.958
645.73	82.561
645.94	83.029
646.16	82.900
646.38	82.520
646.59	82.157
646.81	82.606
647.03	82.603
647.24	82.201
647.46	82.143
647.68	81.909
647.89	81.577
648.11	82.003
648.33	82.143
648.54	82.591
648.76	82.100
648.98	82.224
649.19	81.975
649.41	82.227
649.63	82.122
649.84	82.336
650.06	82.279
650.28	82.482
650.49	82.436
650.71	82.222
650.93	82.278
651.14	82.320
651.36	82.158
651.58	82.457
651.79	83.191
652.01	82.862
652.23	82.931
652.44	83.071
652.66	83.004
652.88	82.555
653.09	82.444
653.31	82.530
653.52	82.861
653.74	82.834
653.96	82.813
654.17	83.236
654.39	83.305
654.61	82.843
654.82	83.133
655.04	83.670
655.25	83.574
655.47	83.447
655.69	83.606
655.90	83.233
656.12	83.333
656.34	83.106
656.55	82.702
656.77	82.476
656.98	82.785
657.20	82.810
657.42	82.381
657.63	82.623
657.85	82.940
658.06	82.367
658.28	82.474
658.50	82.013
658.71	82.582
658.93	82.849
659.14	83.023
659.36	83.174
659.58	83.086
659.79	83.137
660.01	83.182
660.22	83.236
660.44	83.271
660.65	82.938
660.87	83.202
661.09	82.873
661.30	83.134
661.52	83.289
661.73	83.371
661.95	83.006
662.16	83.001
662.38	82.955
662.60	83.365
662.81	83.209
663.03	83.366
663.24	83.134
663.46	82.711
663.67	83.012
663.89	83.353
664.11	83.287
664.32	83.182
664.54	83.127
664.75	83.524
664.97	83.616
665.18	83.361
665.40	83.350
665.61	83.572
665.83	83.392
666.04	83.151
666.26	83.450
666.48	83.233
666.69	83.407
666.91	83.752
667.12	83.951
667.34	84.075
667.55	84.001
667.77	84.094
667.98	83.828
668.20	84.350
668.41	84.160
668.63	84.334
668.84	84.199
669.06	83.509
669.27	83.293
669.49	83.781
669.70	84.149
669.92	84.005
670.13	84.259
670.35	84.254
670.56	84.342
670.78	84.483
670.99	84.116
671.21	84.054
671.42	83.981
671.64	84.010
671.85	84.214
672.07	84.431
672.28	84.175
672.50	84.212
672.71	84.592
672.93	84.711
673.14	84.721
673.36	84.333
673.57	84.449
673.79	84.163
674.00	84.273
674.22	84.390
674.43	83.980
674.65	84.623
674.86	84.809
675.08	85.040
675.29	85.085
675.50	85.663
675.72	85.379
675.93	85.243
676.15	85.328
676.36	85.276
676.58	85.361
676.79	85.107
677.01	85.210
677.22	85.309
677.44	85.329
677.65	85.170
677.86	84.757
678.08	84.753
678.29	84.573
678.51	84.453
678.72	84.844
678.94	85.053
679.15	85.309
679.37	85.522
679.58	85.462
679.79	85.762
680.01	85.963
680.22	85.397
680.44	85.186
680.65	85.443
680.87	85.826
681.08	85.427
681.29	85.518
681.51	85.558
681.72	85.958
681.94	85.673
682.15	85.695
682.36	85.493
682.58	85.771
682.79	85.808
683.01	85.599
683.22	85.918
683.43	86.526
683.65	86.444
683.86	86.469
684.08	86.991
684.29	86.518
684.50	86.314
684.72	85.767
684.93	86.032
685.15	85.543
685.36	86.004
685.57	86.313
685.79	86.636
686.00	86.194
686.22	85.989
686.43	86.559
686.64	86.557
686.86	86.036
687.07	86.336
687.28	86.387
687.50	86.489
687.71	86.509
687.93	87.040
688.14	86.467
688.35	86.571
688.57	86.391
688.78	86.022
688.99	86.636
689.21	86.450
689.42	86.966
689.63	86.410
689.85	86.806
690.06	86.976
690.27	86.882
690.49	86.771
690.70	87.004
690.91	86.934
691.13	86.459
691.34	86.907
691.56	86.680
691.77	86.130
691.98	86.490
692.20	86.498
692.41	86.330
692.62	86.554
692.84	86.478
693.05	86.894
693.26	87.056
693.47	86.738
693.69	86.834
693.90	86.654
694.11	86.622
694.33	86.777
694.54	86.692
694.75	86.556
694.97	86.539
695.18	86.508
695.39	86.854
695.61	87.118
695.82	86.817
696.03	87.092
696.25	87.302
696.46	86.990
696.67	86.525
696.88	86.134
697.10	86.199
697.31	86.452
697.52	86.197
697.74	86.683
697.95	86.369
698.16	86.576
698.37	86.463
698.59	86.929
698.80	87.233
699.01	86.981
699.23	86.260
699.44	86.427
699.65	87.071
699.86	86.975
700.08	87.088
700.29	86.835
700.50	86.703
700.71	87.035
700.93	87.330
701.14	87.200
701.35	87.060
701.56	87.181
701.78	87.546
701.99	87.303
702.20	86.694
702.41	87.072
702.63	87.178
702.84	87.566
703.05	87.541
703.26	87.574
703.48	87.332
703.69	87.143
703.90	86.940
704.11	86.543
704.33	87.182
704.54	87.149
704.75	87.246
704.96	86.929
705.18	87.058
705.39	87.397
705.60	87.758
705.81	87.956
706.02	87.910
706.24	87.859
706.45	88.267
706.66	88.687
706.87	87.772
707.09	87.811
707.30	88.045
707.51	88.352
707.72	87.855
707.93	88.411
708.15	88.326
708.36	87.924
708.57	88.470
708.78	88.453
708.99	88.588
709.21	88.133
709.42	87.817
709.63	87.740
709.84	87.426
710.05	87.462
710.27	87.843
710.48	87.541
710.69	87.404
710.90	87.130
711.11	87.715
711.32	87.588
711.54	88.051
711.75	88.246
711.96	88.407
712.17	88.503
712.38	88.430
712.59	88.533
712.81	88.069
713.02	88.325
713.23	88.469
713.44	88.418
713.65	88.574
713.86	88.749
714.08	88.307
714.29	88.634
714.50	88.257
714.71	88.392
714.92	87.808
715.13	87.697
715.34	87.969
715.56	88.546
715.77	88.405
715.98	87.644
716.19	88.230
716.40	88.643
716.61	88.482
716.82	88.593
717.04	88.294
717.25	88.208
717.46	88.144
717.67	88.088
717.88	87.668
718.09	88.061
718.30	88.452
718.51	88.842
718.73	89.161
718.94	89.292
719.15	88.954
719.36	88.551
719.57	88.539
719.78	88.927
719.99	88.349
720.20	88.615
720.41	88.913
720.63	89.406
720.84	89.226
721.05	88.724
721.26	89.036
721.47	89.411
721.68	89.015
721.89	88.420
722.10	88.908
722.31	89.334
722.52	89.143
722.73	89.168
722.95	89.072
723.16	89.256
723.37	88.974
723.58	89.244
723.79	89.222
724.00	89.063
724.21	88.972
724.42	89.532
724.63	89.593
724.84	89.068
725.05	89.027
725.26	89.073
725.47	89.136
725.68	89.457
725.90	89.004
726.11	89.417
726.32	89.233
726.53	89.217
726.74	89.530
726.95	90.031
727.16	89.823
727.37	89.745
727.58	89.568
727.79	89.807
728.00	89.418
728.21	89.592
728.42	89.227
728.63	89.114
728.84	89.151
729.05	89.431
729.26	89.536
729.47	89.434
729.68	89.309
729.89	89.083
730.10	89.024
730.31	88.778
730.52	89.297
730.73	89.316
730.94	89.085
731.15	89.230
731.36	88.990
731.57	89.566
731.78	88.811
731.99	88.526
732.20	88.522
732.41	88.943
732.62	89.349
732.83	89.184
733.04	89.018
733.25	88.444
733.46	88.223
733.67	88.324
733.88	88.422
734.09	88.871
734.30	88.822
734.51	88.982
734.72	88.518
734.93	89.020
735.14	89.509
735.35	89.166
735.56	89.753
735.77	89.868
735.98	89.654
736.19	89.428
736.40	89.696
736.61	89.357
736.82	88.998
737.03	89.227
737.24	89.022
737.45	89.283
737.66	89.297
737.87	89.352
738.08	89.022
738.29	89.099
738.50	88.593
738.71	89.320
738.92	89.310
739.13	89.746
739.34	89.765
739.55	89.204
739.75	89.139
739.96	89.531
740.17	89.033
740.38	88.975
740.59	89.658
740.80	89.067
741.01	88.614
741.22	88.687
741.43	89.441
741.64	89.946
741.85	89.928
742.06	89.661
742.27	89.332
742.48	89.103
742.68	89.363
742.89	89.333
743.10	89.166
743.31	88.777
743.52	88.959
743.73	89.352
743.94	88.985
744.15	89.286
744.36	89.078
744.57	89.524
744.78	89.578
744.98	89.902
745.19	89.554
745.40	89.556
745.61	89.219
745.82	89.110
746.03	88.945
746.24	89.132
746.45	89.390
746.66	89.383
746.86	89.516
747.07	89.889
747.28	89.240
747.49	89.412
747.70	89.355
747.91	89.097
748.12	89.384
748.33	89.449
748.53	89.448
748.74	89.737
748.95	89.245
749.16	89.976
749.37	89.913
749.58	89.949
749.79	89.600
749.99	89.350
750.20	89.260
750.41	89.066
750.62	89.378
750.83	89.255
751.04	89.285
751.25	89.930
751.45	89.606
751.66	89.274
751.87	89.379
752.08	88.980
752.29	89.761
752.50	89.686
752.70	89.737
752.91	89.783
753.12	89.315
753.33	89.458
753.54	89.446
753.75	89.462
753.95	89.572
754.16	89.903
754.37	90.190
754.58	89.887
754.79	89.426
754.99	89.309
755.20	89.332
755.41	89.633
755.62	89.763
755.83	89.638
756.04	89.539
756.24	89.779
756.45	89.645
756.66	89.512
756.87	89.320
757.08	89.579
757.28	89.796
757.49	90.013
757.70	89.746
757.91	89.260
758.11	89.394
758.32	90.198
758.53	90.887
758.74	90.647
758.95	90.209
759.15	89.813
759.36	90.112
759.57	89.946
759.78	90.233
759.98	89.788
760.19	89.533
760.40	89.301
760.61	90.314
760.82	90.160
761.02	89.971
761.23	89.732
761.44	90.002
761.65	90.457
761.85	90.481
762.06	90.603
762.27	90.243
762.48	90.220
762.68	90.325
762.89	90.225
763.10	89.698
763.31	89.723
763.51	90.408
763.72	90.705
763.93	90.606
764.13	90.271
764.34	90.650
764.55	90.132
764.76	90.311
764.96	90.560
765.17	89.775
765.38	90.113
765.59	89.805
765.79	89.419
766.00	89.807
766.21	89.626
766.41	90.061
766.62	90.425
766.83	90.271
767.04	89.687
767.24	90.221
767.45	89.899
767.66	89.534
767.86	89.851
768.07	89.039
768.28	89.432
768.48	90.280
768.69	89.770
768.90	89.949
769.11	90.307
769.31	89.917
769.52	89.649
769.73	90.353
769.93	90.939
770.14	90.871
770.35	91.293
770.55	91.205
770.76	91.341
770.97	91.180
771.17	91.592
771.38	91.238
771.59	90.616
771.79	90.086
772.00	90.215
772.21	90.129
772.41	90.575
772.62	90.165
772.83	90.019
773.03	90.227
773.24	90.070
773.45	89.943
773.65	89.427
773.86	89.699
774.07	90.202
774.27	90.176
774.48	90.117
774.69	90.385
774.89	90.144
775.10	90.287
775.30	90.432
775.51	90.300
775.72	90.525
775.92	90.744
776.13	90.273
776.34	90.435
776.54	90.320
776.75	90.503
776.95	90.496
777.16	90.300
777.37	89.978
777.57	90.279
777.78	90.174
777.99	90.296
778.19	90.625
778.40	90.891
778.60	90.488
778.81	90.339
779.02	89.868
779.22	90.204
779.43	90.282
779.63	90.084
779.84	90.764
780.05	90.150
780.25	90.401
780.46	90.720
780.66	90.902
780.87	90.483
781.08	90.685
781.28	90.572
781.49	90.071
781.69	89.563
781.90	90.017
782.10	89.841
782.31	89.624
782.52	89.968
782.72	90.262
782.93	90.851
783.13	90.461
783.34	90.552
783.54	91.040
783.75	91.013
783.96	90.767
784.16	90.645
784.37	90.780
784.57	90.930
784.78	91.038
784.98	90.819
785.19	90.447
785.39	90.541
785.60	90.443
785.80	89.968
786.01	89.885
786.22	90.739
786.42	91.041
786.63	90.172
786.83	90.832
787.04	90.896
787.24	90.215
787.45	90.374
787.65	90.677
787.86	90.673
788.06	90.865
788.27	90.447
788.47	90.969
788.68	90.536
788.88	90.666
789.09	90.937
789.29	90.591
789.50	90.291
789.70	90.055
789.91	90.145
790.11	90.515
790.32	91.079
790.52	90.662
790.73	90.449
790.93	89.587
791.14	89.703
791.34	90.006
791.55	90.046
791.75	90.897
791.96	90.832
792.16	90.729
792.37	90.761
792.57	90.638
792.78	90.978
792.98	90.850
793.19	90.854
793.39	91.103
793.60	91.120
793.80	90.489
794.01	90.862
794.21	90.309
794.42	90.362
794.62	90.208
794.83	90.035
795.03	90.308
795.24	90.080
795.44	90.275
795.64	91.173
795.85	90.751
796.05	91.152
796.26	91.187
796.46	90.804
796.67	91.239
796.87	91.069
797.08	91.070
797.28	90.576
797.48	90.076
797.69	91.169
797.89	91.529
798.10	92.011
798.30	91.964
798.51	92.109
798.71	92.457
798.91	91.946
799.12	91.653
799.32	91.643
799.53	92.052
799.73	91.803
799.94	91.787
800.14	91.434
800.34	91.389
800.55	91.155
800.75	90.978
800.96	91.183
801.16	91.124
801.36	91.368
801.57	90.905
801.77	90.753
801.98	90.758
802.18	90.655
802.38	90.486
802.59	91.009
802.79	91.076
803.00	91.325
803.20	91.337
803.40	91.160
803.61	90.898
803.81	90.725
804.02	91.725
804.22	91.605
804.42	91.478
804.63	91.575
804.83	91.258
805.03	91.540
805.24	91.149
805.44	91.031
805.65	91.053
805.85	91.075
806.05	91.393
806.26	92.133
806.46	92.285
806.66	93.039
806.87	93.256
807.07	92.986
807.27	92.575
807.48	92.318
807.68	91.808
807.88	91.199
808.09	90.721
808.29	91.166
808.49	91.174
808.70	91.018
808.90	90.699
809.10	90.141
809.31	90.776
809.51	91.040
809.71	90.671
809.92	90.880
810.12	91.360
810.32	91.404
810.53	92.196
810.73	92.055
810.93	91.808
811.14	91.726
811.34	90.777
811.54	91.215
811.75	91.261
811.95	91.386
812.15	91.406
812.36	91.797
812.56	91.243
812.76	91.439
812.96	91.245
813.17	91.795
813.37	92.042
813.57	92.017
813.78	91.660
813.98	91.649
814.18	93.045
814.38	92.899
814.59	92.425
814.79	92.949
814.99	92.354
815.20	92.211
815.40	91.615
815.60	91.551
815.80	91.766
816.01	92.358
816.21	91.925
816.41	92.005
816.62	91.353
816.82	91.536
817.02	91.877
817.22	92.060
817.43	91.784
817.63	91.700
817.83	91.167
818.03	91.126
818.24	91.249
818.44	91.933
818.64	91.587
818.84	91.998
819.05	91.536
819.25	91.725
819.45	92.362
819.65	91.913
819.86	92.491
820.06	91.946
820.26	91.970
820.46	91.912
820.66	92.372
820.87	92.084
821.07	91.955
821.27	91.968
821.47	91.687
821.68	91.083
821.88	91.912
822.08	91.447
822.28	92.395
>>>>>End Spectral Data<<<<<
