OOIBase32 Version 2.0.1.4 Data File
++++++++++++++++++++++++++++++++++++
Date: 11-03-2025, 10:50:22
User: Valued Ocean Optics Customer
Spectrometer Serial Number: HR2B216
Spectrometer Channel: Master
Integration Time (msec): 5
Spectra Averaged: 80
Boxcar Smoothing: 0
Correct for Electrical Dark: Disabled
Time Normalized: Disabled
Dual-beam Reference: Disabled
Reference Channel: Master
Temperature: Not acquired
Spectrometer Type: S2000
ADC Type: HR2000
Number of Pixels in File: 2048
Graph Title: 
>>>>>Begin Spectral Data<<<<<
373.12	0.000
373.35	24.000
373.59	1899.329
373.82	11.115
374.06	81.580
374.29	27.027
374.53	51.948
374.76	66.666
375.00	1899.329
375.23	-63.160
375.47	-53.572
375.70	68.750
375.94	12.000
376.17	-3.999
376.40	69.229
376.64	-566.694
376.87	250.023
377.11	-20.588
377.34	181.812
377.58	7.143
377.81	42.104
378.05	175.000
378.28	118.519
378.52	32.759
378.75	-13.636
378.99	10.870
379.22	-65.854
379.45	6.521
379.69	38.938
379.92	-37.931
380.16	23.500
380.39	21.296
380.63	6.015
380.86	5.128
381.10	-2.128
381.33	-20.349
381.56	-15.517
381.80	-14.466
382.03	24.390
382.27	-11.864
382.50	-13.610
382.74	-25.301
382.97	1.026
383.21	20.725
383.44	-21.831
383.67	2.463
383.91	-22.148
384.14	6.154
384.38	17.436
384.61	26.637
384.84	11.416
385.08	4.348
385.31	2.381
385.55	-3.375
385.78	8.936
386.02	-2.646
386.25	12.670
386.48	7.456
386.72	0.743
386.95	3.279
387.19	-3.319
387.42	-10.762
387.65	-5.769
387.89	-4.461
388.12	1.778
388.36	22.490
388.59	13.455
388.82	6.015
389.06	-9.434
389.29	16.000
389.53	7.516
389.76	9.365
389.99	19.030
390.23	-10.949
390.46	-11.191
390.70	-7.625
390.93	-5.825
391.16	5.573
391.40	1.672
391.63	-4.839
391.87	-6.144
392.10	-9.352
392.33	-6.790
392.57	-10.544
392.80	-7.764
393.03	3.235
393.27	6.433
393.50	-1.466
393.74	4.482
393.97	1.031
394.20	2.325
394.44	-3.198
394.67	-12.397
394.90	-0.907
395.14	-3.342
395.37	-8.802
395.60	-21.579
395.84	0.000
396.07	2.691
396.31	9.242
396.54	-1.504
396.77	-2.398
397.01	19.309
397.24	13.472
397.47	0.636
397.71	2.376
397.94	0.201
398.17	2.672
398.41	7.514
398.64	-0.192
398.87	-0.192
399.11	10.440
399.34	6.642
399.57	-1.346
399.81	0.563
400.04	2.439
400.27	-8.402
400.51	7.748
400.74	7.325
400.97	6.034
401.21	-2.874
401.44	-8.088
401.67	-3.615
401.91	6.441
402.14	4.714
402.37	1.980
402.61	6.843
402.84	2.610
403.07	-0.155
403.31	6.047
403.54	-2.102
403.77	-2.754
404.00	-5.164
404.24	4.056
404.47	3.629
404.70	5.503
404.94	6.827
405.17	-1.248
405.40	2.621
405.64	4.245
405.87	0.628
406.10	-0.396
406.34	2.530
406.57	3.554
406.80	2.908
407.03	7.213
407.27	5.000
407.50	5.193
407.73	0.244
407.97	5.405
408.20	2.389
408.43	2.746
408.66	-1.053
408.90	-1.208
409.13	3.670
409.36	7.808
409.60	-1.557
409.83	1.255
410.06	-3.621
410.29	0.764
410.53	0.000
410.76	0.523
410.99	3.109
411.22	0.189
411.46	-2.359
411.69	1.692
411.92	1.250
412.16	-1.869
412.39	-1.787
412.62	2.390
412.85	9.199
413.09	3.022
413.32	0.527
413.55	3.836
413.78	0.952
414.02	3.410
414.25	-0.172
414.48	4.963
414.71	1.578
414.95	-0.348
415.18	0.911
415.41	0.394
415.64	-0.663
415.88	2.611
416.11	-1.553
416.34	1.609
416.57	-0.231
416.80	1.482
417.04	0.590
417.27	0.000
417.50	2.616
417.73	1.505
417.97	0.775
418.20	-0.134
418.43	0.859
418.66	-1.030
418.90	-0.201
419.13	-0.705
419.36	0.335
419.59	0.124
419.82	2.547
420.06	2.941
420.29	-0.562
420.52	-1.219
420.75	-1.726
420.98	-1.590
421.22	3.993
421.45	2.629
421.68	0.862
421.91	0.403
422.15	1.197
422.38	2.517
422.61	-1.443
422.84	0.000
423.07	0.483
423.31	-0.443
423.54	0.260
423.77	2.383
424.00	0.053
424.23	1.696
424.46	0.924
424.70	0.816
424.93	0.254
425.16	0.276
425.39	0.253
425.62	0.461
425.86	0.192
426.09	0.186
426.32	-0.144
426.55	-0.230
426.78	0.749
427.01	-1.212
427.25	-1.526
427.48	1.613
427.71	3.088
427.94	0.682
428.17	1.078
428.40	0.815
428.64	0.130
428.87	3.288
429.10	-0.722
429.33	-0.080
429.56	0.234
429.79	0.729
430.03	-0.330
430.26	-0.476
430.49	2.393
430.72	0.147
430.95	0.420
431.18	0.979
431.42	-0.256
431.65	-0.801
431.88	0.000
432.11	-0.794
432.34	1.788
432.57	-1.271
432.80	0.637
433.04	1.098
433.27	1.817
433.50	1.190
433.73	-0.399
433.96	-0.295
434.19	-0.316
434.42	-0.471
434.65	-0.858
434.89	-0.729
435.12	-0.744
435.35	-0.427
435.58	0.090
435.81	-0.404
436.04	0.697
436.27	0.995
436.50	0.117
436.74	-0.686
436.97	-1.094
437.20	0.450
437.43	0.395
437.66	-0.108
437.89	-0.301
438.12	-0.577
438.35	-0.109
438.58	-0.559
438.82	-1.104
439.05	0.500
439.28	0.723
439.51	0.176
439.74	1.117
439.97	0.375
440.20	0.093
440.43	-0.095
440.66	-1.329
440.89	-1.072
441.12	0.116
441.36	0.652
441.59	0.065
441.82	0.572
442.05	0.751
442.28	0.819
442.51	0.855
442.74	0.833
442.97	-0.448
443.20	0.244
443.43	-0.021
443.66	-0.339
443.89	-0.428
444.13	0.145
444.36	-0.144
444.59	0.158
444.82	-0.668
445.05	-1.095
445.28	0.168
445.51	0.715
445.74	0.343
445.97	-0.649
446.20	-0.770
446.43	-0.093
446.66	0.071
446.89	-0.147
447.12	0.162
447.35	-0.297
447.58	-0.180
447.81	-0.460
448.05	-0.051
448.28	0.264
448.51	-0.459
448.74	-0.657
448.97	-0.293
449.20	0.113
449.43	0.151
449.66	0.588
449.89	0.000
450.12	0.286
450.35	-0.170
450.58	-0.658
450.81	-0.425
451.04	0.087
451.27	0.569
451.50	-0.124
451.73	-0.539
451.96	-0.569
452.19	0.332
452.42	-0.239
452.65	0.185
452.88	0.432
453.11	-0.187
453.34	-0.731
453.57	0.479
453.80	-0.054
454.03	-0.250
454.26	-0.389
454.49	0.494
454.72	-0.534
454.95	-0.309
455.18	0.566
455.41	0.496
455.64	-0.133
455.87	0.150
456.10	-0.159
456.33	0.013
456.56	-0.162
456.79	-0.345
457.02	0.188
457.25	0.414
457.48	-0.417
457.71	0.250
457.94	-0.058
458.17	-0.059
458.40	-0.436
458.63	-0.122
458.86	0.186
459.09	-0.553
459.32	0.397
459.55	0.055
459.78	-0.246
460.01	0.238
460.24	0.064
460.47	-0.120
460.70	-0.180
460.93	0.551
461.16	0.175
461.39	0.073
461.62	0.075
461.85	-0.256
462.08	0.142
462.31	-0.507
462.54	0.335
462.77	0.396
463.00	0.223
463.22	0.372
463.45	-0.334
463.68	0.194
463.91	0.300
464.14	0.056
464.37	-0.310
464.60	-0.046
464.83	0.158
465.06	0.166
465.29	-0.124
465.52	-0.213
465.75	-0.304
465.98	-0.275
466.21	0.261
466.44	0.362
466.67	-0.210
466.90	0.073
467.12	-0.082
467.35	0.089
467.58	0.049
467.81	0.024
468.04	-0.224
468.27	0.229
468.50	-0.062
468.73	-0.008
468.96	-0.061
469.19	0.138
469.42	0.282
469.65	0.190
469.87	0.189
470.10	-0.115
470.33	-0.134
470.56	0.153
470.79	0.302
471.02	0.172
471.25	0.153
471.48	-0.059
471.71	-0.071
471.94	-0.007
472.17	-0.200
472.39	-0.282
472.62	-0.019
472.85	0.155
473.08	0.243
473.31	0.273
473.54	0.177
473.77	0.017
474.00	-0.107
474.23	0.362
474.45	0.178
474.68	-0.100
474.91	0.039
475.14	-0.124
475.37	-0.234
475.60	-0.298
475.83	-0.241
476.06	0.047
476.28	-0.093
476.51	0.005
476.74	-0.015
476.97	0.035
477.20	0.065
477.43	-0.034
477.66	0.141
477.88	0.090
478.11	0.024
478.34	0.019
478.57	-0.132
478.80	-0.032
479.03	0.009
479.26	-0.031
479.48	0.141
479.71	0.109
479.94	0.160
480.17	0.021
480.40	-0.039
480.63	-0.004
480.86	0.000
481.08	-0.055
481.31	-0.119
481.54	0.151
481.77	-0.036
482.00	0.114
482.23	-0.040
482.45	0.016
482.68	0.169
482.91	0.069
483.14	0.079
483.37	0.067
483.60	0.033
483.82	-0.049
484.05	0.119
484.28	0.266
484.51	0.130
484.74	0.086
484.96	0.136
485.19	0.046
485.42	0.007
485.65	0.041
485.88	0.038
486.10	0.034
486.33	-0.014
486.56	-0.010
486.79	0.033
487.02	0.086
487.25	0.071
487.47	-0.039
487.70	-0.019
487.93	0.042
488.16	0.013
488.39	0.106
488.61	0.053
488.84	-0.006
489.07	0.065
489.30	0.055
489.52	-0.025
489.75	0.009
489.98	0.149
490.21	0.018
490.44	0.119
490.66	-0.126
490.89	0.041
491.12	-0.056
491.35	-0.052
491.57	0.020
491.80	0.034
492.03	0.031
492.26	-0.054
492.49	0.067
492.71	0.066
492.94	0.019
493.17	-0.071
493.40	-0.112
493.62	-0.019
493.85	0.117
494.08	-0.071
494.31	-0.005
494.53	0.013
494.76	0.094
494.99	0.062
495.22	0.033
495.44	-0.053
495.67	0.033
495.90	-0.028
496.13	0.063
496.35	-0.059
496.58	0.049
496.81	0.027
497.04	0.017
497.26	0.068
497.49	0.082
497.72	-0.074
497.95	0.073
498.17	0.028
498.40	0.053
498.63	0.007
498.85	-0.014
499.08	0.039
499.31	0.023
499.54	0.016
499.76	0.124
499.99	0.046
500.22	0.115
500.44	0.124
500.67	-0.099
500.90	0.061
501.13	0.024
501.35	0.009
501.58	0.021
501.81	0.019
502.03	0.066
502.26	0.044
502.49	0.000
502.72	0.002
502.94	0.020
503.17	0.059
503.40	0.025
503.62	0.087
503.85	0.055
504.08	-0.026
504.30	0.114
504.53	0.089
504.76	0.186
504.98	0.045
505.21	0.053
505.44	0.039
505.67	0.055
505.89	0.092
506.12	-0.002
506.35	0.076
506.57	-0.025
506.80	0.046
507.03	-0.009
507.25	0.009
507.48	-0.004
507.71	0.090
507.93	-0.029
508.16	-0.098
508.39	0.080
508.61	0.007
508.84	0.050
509.07	0.059
509.29	-0.027
509.52	-0.038
509.75	0.016
509.97	0.020
510.20	0.057
510.43	0.035
510.65	0.021
510.88	0.106
511.10	0.026
511.33	0.031
511.56	0.038
511.78	0.078
512.01	-0.046
512.24	-0.036
512.46	0.053
512.69	0.059
512.92	0.020
513.14	-0.003
513.37	0.059
513.59	-0.036
513.82	0.022
514.05	0.020
514.27	0.084
514.50	0.041
514.73	0.033
514.95	0.055
515.18	0.076
515.40	0.029
515.63	0.011
515.86	0.002
516.08	-0.011
516.31	0.087
516.54	0.056
516.76	0.062
516.99	0.008
517.21	0.048
517.44	0.107
517.67	0.031
517.89	0.075
518.12	0.065
518.34	0.050
518.57	0.039
518.80	0.047
519.02	0.146
519.25	0.006
519.47	0.025
519.70	0.025
519.93	0.068
520.15	0.042
520.38	0.093
520.60	0.043
520.83	0.026
521.05	0.029
521.28	0.046
521.51	0.015
521.73	0.003
521.96	0.054
522.18	0.064
522.41	0.017
522.63	0.111
522.86	0.073
523.09	0.066
523.31	0.034
523.54	0.064
523.76	0.049
523.99	0.091
524.21	0.011
524.44	0.039
524.67	0.007
524.89	-0.026
525.12	0.027
525.34	0.054
525.57	0.030
525.79	0.070
526.02	0.077
526.24	0.022
526.47	0.054
526.69	0.113
526.92	0.020
527.15	0.074
527.37	0.095
527.60	0.074
527.82	0.039
528.05	0.049
528.27	0.049
528.50	0.138
528.72	0.124
528.95	0.033
529.17	0.013
529.40	0.068
529.62	0.078
529.85	0.221
530.07	0.132
530.30	0.073
530.52	0.124
530.75	0.055
530.98	0.023
531.20	0.032
531.43	0.094
531.65	0.009
531.88	-0.038
532.10	-0.002
532.33	0.088
532.55	0.052
532.78	0.005
533.00	0.064
533.23	0.093
533.45	0.079
533.68	0.077
533.90	0.075
534.13	0.108
534.35	0.109
534.58	0.092
534.80	0.100
535.03	0.090
535.25	0.044
535.47	0.032
535.70	0.049
535.92	0.098
536.15	0.098
536.37	0.073
536.60	0.078
536.82	0.053
537.05	0.043
537.27	0.028
537.50	0.046
537.72	0.002
537.95	0.043
538.17	0.100
538.40	0.089
538.62	0.002
538.85	0.051
539.07	0.029
539.29	0.091
539.52	0.085
539.74	0.074
539.97	0.072
540.19	0.101
540.42	0.055
540.64	0.070
540.87	0.018
541.09	0.053
541.32	0.107
541.54	0.086
541.76	0.043
541.99	0.107
542.21	0.051
542.44	0.053
542.66	0.081
542.89	0.067
543.11	0.102
543.33	0.071
543.56	0.076
543.78	0.067
544.01	0.055
544.23	0.014
544.46	0.022
544.68	0.039
544.90	0.087
545.13	0.067
545.35	0.071
545.58	0.063
545.80	0.058
546.03	0.056
546.25	0.071
546.47	0.049
546.70	0.069
546.92	0.060
547.15	0.011
547.37	0.080
547.59	0.079
547.82	0.042
548.04	0.080
548.27	0.100
548.49	0.084
548.71	0.087
548.94	0.067
549.16	0.070
549.39	0.085
549.61	0.087
549.83	0.093
550.06	0.078
550.28	0.059
550.50	0.077
550.73	0.073
550.95	0.070
551.18	0.089
551.40	0.050
551.62	0.067
551.85	0.044
552.07	0.067
552.29	0.023
552.52	0.055
552.74	0.074
552.97	0.057
553.19	0.083
553.41	0.075
553.64	0.041
553.86	0.009
554.08	0.031
554.31	0.074
554.53	0.046
554.75	0.096
554.98	0.090
555.20	0.049
555.42	0.081
555.65	0.051
555.87	0.044
556.10	0.030
556.32	0.033
556.54	0.074
556.77	0.087
556.99	0.063
557.21	0.045
557.44	0.070
557.66	0.046
557.88	0.069
558.11	0.092
558.33	0.097
558.55	0.084
558.78	0.068
559.00	0.052
559.22	0.046
559.44	0.110
559.67	0.056
559.89	0.082
560.11	0.060
560.34	0.073
560.56	0.083
560.78	0.101
561.01	0.116
561.23	0.107
561.45	0.088
561.68	0.069
561.90	0.083
562.12	0.090
562.35	0.051
562.57	0.072
562.79	0.070
563.01	0.090
563.24	0.102
563.46	0.062
563.68	0.097
563.91	0.027
564.13	0.064
564.35	0.058
564.57	0.080
564.80	0.079
565.02	0.062
565.24	0.077
565.47	0.072
565.69	0.022
565.91	0.053
566.13	0.091
566.36	0.054
566.58	0.071
566.80	0.088
567.02	0.082
567.25	0.097
567.47	0.081
567.69	0.088
567.92	0.116
568.14	0.081
568.36	0.042
568.58	0.025
568.81	0.096
569.03	0.105
569.25	0.078
569.47	0.054
569.70	0.072
569.92	0.096
570.14	0.134
570.36	0.102
570.59	0.093
570.81	0.092
571.03	0.082
571.25	0.124
571.47	0.096
571.70	0.128
571.92	0.072
572.14	0.056
572.36	0.077
572.59	0.077
572.81	0.122
573.03	0.099
573.25	0.092
573.48	0.105
573.70	0.096
573.92	0.075
574.14	0.084
574.36	0.117
574.59	0.124
574.81	0.127
575.03	0.084
575.25	0.106
575.47	0.113
575.70	0.084
575.92	0.113
576.14	0.115
576.36	0.104
576.59	0.086
576.81	0.115
577.03	0.097
577.25	0.087
577.47	0.098
577.69	0.127
577.92	0.121
578.14	0.135
578.36	0.102
578.58	0.101
578.80	0.128
579.03	0.129
579.25	0.109
579.47	0.100
579.69	0.107
579.91	0.122
580.14	0.157
580.36	0.117
580.58	0.139
580.80	0.148
581.02	0.093
581.24	0.117
581.47	0.115
581.69	0.149
581.91	0.154
582.13	0.112
582.35	0.125
582.57	0.129
582.79	0.141
583.02	0.181
583.24	0.159
583.46	0.145
583.68	0.150
583.90	0.142
584.12	0.127
584.35	0.123
584.57	0.167
584.79	0.108
585.01	0.128
585.23	0.145
585.45	0.151
585.67	0.125
585.90	0.133
586.12	0.151
586.34	0.134
586.56	0.124
586.78	0.147
587.00	0.149
587.22	0.162
587.44	0.189
587.67	0.177
587.89	0.176
588.11	0.157
588.33	0.184
588.55	0.205
588.77	0.187
588.99	0.169
589.21	0.175
589.43	0.173
589.66	0.161
589.88	0.185
590.10	0.186
590.32	0.159
590.54	0.181
590.76	0.222
590.98	0.200
591.20	0.192
591.42	0.182
591.64	0.182
591.87	0.219
592.09	0.234
592.31	0.208
592.53	0.211
592.75	0.193
592.97	0.203
593.19	0.240
593.41	0.241
593.63	0.250
593.85	0.236
594.07	0.219
594.29	0.204
594.52	0.225
594.74	0.241
594.96	0.277
595.18	0.259
595.40	0.229
595.62	0.217
595.84	0.247
596.06	0.282
596.28	0.255
596.50	0.270
596.72	0.278
596.94	0.274
597.16	0.258
597.38	0.268
597.60	0.267
597.82	0.268
598.05	0.280
598.27	0.300
598.49	0.267
598.71	0.280
598.93	0.301
599.15	0.276
599.37	0.267
599.59	0.281
599.81	0.288
600.03	0.312
600.25	0.266
600.47	0.298
600.69	0.292
600.91	0.298
601.13	0.341
601.35	0.342
601.57	0.332
601.79	0.310
602.01	0.314
602.23	0.315
602.45	0.315
602.67	0.334
602.89	0.342
603.11	0.351
603.33	0.328
603.55	0.327
603.77	0.351
603.99	0.347
604.21	0.330
604.43	0.351
604.65	0.347
604.87	0.377
605.09	0.352
605.31	0.370
605.53	0.355
605.75	0.365
605.97	0.348
606.19	0.368
606.41	0.370
606.63	0.388
606.85	0.387
607.07	0.379
607.29	0.395
607.51	0.392
607.73	0.407
607.95	0.402
608.17	0.405
608.39	0.390
608.61	0.424
608.83	0.430
609.05	0.413
609.27	0.409
609.49	0.408
609.71	0.392
609.93	0.437
610.15	0.433
610.37	0.436
610.59	0.410
610.81	0.396
611.03	0.426
611.24	0.426
611.46	0.433
611.68	0.435
611.90	0.476
612.12	0.461
612.34	0.471
612.56	0.468
612.78	0.464
613.00	0.494
613.22	0.476
613.44	0.466
613.66	0.481
613.88	0.494
614.10	0.475
614.32	0.479
614.54	0.482
614.75	0.496
614.97	0.490
615.19	0.513
615.41	0.503
615.63	0.514
615.85	0.494
616.07	0.493
616.29	0.490
616.51	0.518
616.73	0.500
616.95	0.534
617.17	0.529
617.38	0.521
617.60	0.524
617.82	0.521
618.04	0.534
618.26	0.530
618.48	0.543
618.70	0.557
618.92	0.568
619.14	0.559
619.36	0.572
619.57	0.571
619.79	0.571
620.01	0.577
620.23	0.587
620.45	0.568
620.67	0.564
620.89	0.575
621.11	0.564
621.33	0.579
621.54	0.594
621.76	0.598
621.98	0.602
622.20	0.603
622.42	0.610
622.64	0.616
622.86	0.612
623.07	0.618
623.29	0.605
623.51	0.626
623.73	0.621
623.95	0.627
624.17	0.618
624.39	0.655
624.60	0.642
624.82	0.654
625.04	0.662
625.26	0.702
625.48	0.668
625.70	0.670
625.92	0.675
626.13	0.702
626.35	0.692
626.57	0.674
626.79	0.678
627.01	0.697
627.23	0.684
627.44	0.711
627.66	0.685
627.88	0.696
628.10	0.710
628.32	0.714
628.54	0.730
628.75	0.735
628.97	0.742
629.19	0.734
629.41	0.728
629.63	0.719
629.84	0.720
630.06	0.760
630.28	0.764
630.50	0.754
630.72	0.737
630.94	0.752
631.15	0.752
631.37	0.782
631.59	0.779
631.81	0.793
632.03	0.770
632.24	0.786
632.46	0.780
632.68	0.818
632.90	0.827
633.11	0.797
633.33	0.784
633.55	0.812
633.77	0.792
633.99	0.814
634.20	0.807
634.42	0.832
634.64	0.843
634.86	0.832
635.08	0.862
635.29	0.843
635.51	0.840
635.73	0.866
635.95	0.853
636.16	0.866
636.38	0.876
636.60	0.894
636.82	0.864
637.03	0.873
637.25	0.921
637.47	0.921
637.69	0.916
637.90	0.928
638.12	0.908
638.34	0.907
638.56	0.909
638.77	0.921
638.99	0.922
639.21	0.934
639.43	0.958
639.64	0.950
639.86	0.959
640.08	0.950
640.30	0.977
640.51	0.986
640.73	0.957
640.95	0.969
641.17	0.951
641.38	0.982
641.60	0.983
641.82	1.005
642.03	1.002
642.25	1.032
642.47	0.980
642.69	1.000
642.90	0.992
643.12	1.013
643.34	1.016
643.55	1.042
643.77	1.013
643.99	1.047
644.21	1.056
644.42	1.045
644.64	1.062
644.86	1.056
645.07	1.092
645.29	1.055
645.51	1.095
645.73	1.090
645.94	1.087
646.16	1.086
646.38	1.115
646.59	1.136
646.81	1.111
647.03	1.145
647.24	1.133
647.46	1.143
647.68	1.138
647.89	1.148
648.11	1.156
648.33	1.148
648.54	1.199
648.76	1.172
648.98	1.187
649.19	1.174
649.41	1.218
649.63	1.210
649.84	1.221
650.06	1.229
650.28	1.245
650.49	1.234
650.71	1.264
650.93	1.235
651.14	1.299
651.36	1.272
651.58	1.249
651.79	1.284
652.01	1.278
652.23	1.281
652.44	1.295
652.66	1.298
652.88	1.317
653.09	1.317
653.31	1.316
653.52	1.352
653.74	1.344
653.96	1.346
654.17	1.373
654.39	1.351
654.61	1.372
654.82	1.352
655.04	1.366
655.25	1.358
655.47	1.388
655.69	1.420
655.90	1.400
656.12	1.433
656.34	1.418
656.55	1.425
656.77	1.429
656.98	1.404
657.20	1.427
657.42	1.440
657.63	1.456
657.85	1.453
658.06	1.474
658.28	1.455
658.50	1.470
658.71	1.496
658.93	1.508
659.14	1.528
659.36	1.516
659.58	1.493
659.79	1.532
660.01	1.515
660.22	1.493
660.44	1.523
660.65	1.538
660.87	1.551
661.09	1.575
661.30	1.568
661.52	1.568
661.73	1.572
661.95	1.584
662.16	1.556
662.38	1.574
662.60	1.593
662.81	1.598
663.03	1.599
663.24	1.610
663.46	1.627
663.67	1.674
663.89	1.680
664.11	1.694
664.32	1.727
664.54	1.690
664.75	1.730
664.97	1.734
665.18	1.753
665.40	1.761
665.61	1.774
665.83	1.778
666.04	1.814
666.26	1.814
666.48	1.838
666.69	1.827
666.91	1.839
667.12	1.873
667.34	1.870
667.55	1.900
667.77	1.918
667.98	1.964
668.20	1.982
668.41	1.975
668.63	2.020
668.84	2.014
669.06	1.993
669.27	2.021
669.49	2.048
669.70	2.090
669.92	2.067
670.13	2.091
670.35	2.112
670.56	2.129
670.78	2.136
670.99	2.202
671.21	2.241
671.42	2.218
671.64	2.247
671.85	2.243
672.07	2.300
672.28	2.315
672.50	2.311
672.71	2.337
672.93	2.343
673.14	2.342
673.36	2.387
673.57	2.404
673.79	2.446
674.00	2.451
674.22	2.480
674.43	2.474
674.65	2.520
674.86	2.530
675.08	2.575
675.29	2.632
675.50	2.652
675.72	2.690
675.93	2.633
676.15	2.646
676.36	2.707
676.58	2.724
676.79	2.730
677.01	2.750
677.22	2.783
677.44	2.771
677.65	2.844
677.86	2.841
678.08	2.858
678.29	2.822
678.51	2.879
678.72	2.872
678.94	2.932
679.15	2.948
679.37	2.968
679.58	2.953
679.79	2.992
680.01	2.989
680.22	3.011
680.44	3.084
680.65	3.082
680.87	3.096
681.08	3.084
681.29	3.108
681.51	3.102
681.72	3.135
681.94	3.115
682.15	3.098
682.36	3.139
682.58	3.128
682.79	3.143
683.01	3.156
683.22	3.193
683.43	3.166
683.65	3.199
683.86	3.217
684.08	3.217
684.29	3.224
684.50	3.223
684.72	3.231
684.93	3.228
685.15	3.220
685.36	3.277
685.57	3.295
685.79	3.262
686.00	3.328
686.22	3.322
686.43	3.359
686.64	3.395
686.86	3.417
687.07	3.442
687.28	3.469
687.50	3.517
687.71	3.555
687.93	3.561
688.14	3.624
688.35	3.644
688.57	3.697
688.78	3.728
688.99	3.755
689.21	3.783
689.42	3.861
689.63	3.887
689.85	3.925
690.06	4.028
690.27	4.095
690.49	4.150
690.70	4.230
690.91	4.247
691.13	4.339
691.34	4.430
691.56	4.536
691.77	4.630
691.98	4.733
692.20	4.844
692.41	4.877
692.62	4.937
692.84	5.081
693.05	5.132
693.26	5.217
693.47	5.234
693.69	5.340
693.90	5.394
694.11	5.453
694.33	5.563
694.54	5.563
694.75	5.640
694.97	5.673
695.18	5.779
695.39	5.830
695.61	5.852
695.82	5.907
696.03	5.972
696.25	6.068
696.46	6.157
696.67	6.316
696.88	6.477
697.10	6.659
697.31	6.826
697.52	6.997
697.74	7.239
697.95	7.498
698.16	7.748
698.37	7.974
698.59	8.245
698.80	8.377
699.01	8.620
699.23	8.809
699.44	9.039
699.65	9.158
699.86	9.323
700.08	9.549
700.29	9.700
700.50	9.883
700.71	10.074
700.93	10.290
701.14	10.522
701.35	10.787
701.56	10.956
701.78	11.103
701.99	11.292
702.20	11.481
702.41	11.683
702.63	11.832
702.84	11.962
703.05	12.251
703.26	12.427
703.48	12.711
703.69	12.826
703.90	12.969
704.11	13.125
704.33	13.258
704.54	13.397
704.75	13.575
704.96	13.739
705.18	13.811
705.39	14.009
705.60	14.132
705.81	14.241
706.02	14.312
706.24	14.412
706.45	14.564
706.66	14.652
706.87	14.764
707.09	14.947
707.30	15.048
707.51	15.113
707.72	15.193
707.93	15.312
708.15	15.271
708.36	15.350
708.57	15.313
708.78	15.466
708.99	15.519
709.21	15.561
709.42	15.656
709.63	15.768
709.84	15.866
710.05	16.014
710.27	15.992
710.48	15.987
710.69	15.994
710.90	16.045
711.11	16.132
711.32	16.139
711.54	16.195
711.75	16.308
711.96	16.282
712.17	16.157
712.38	16.222
712.59	16.448
712.81	16.484
713.02	16.533
713.23	16.525
713.44	16.654
713.65	16.676
713.86	16.595
714.08	16.632
714.29	16.633
714.50	16.683
714.71	16.625
714.92	16.644
715.13	16.684
715.34	16.605
715.56	16.598
715.77	16.600
715.98	16.600
716.19	16.598
716.40	16.743
716.61	16.745
716.82	16.671
717.04	16.703
717.25	16.715
717.46	16.750
717.67	16.792
717.88	16.860
718.09	16.939
718.30	16.925
718.51	16.795
718.73	16.807
718.94	16.712
719.15	16.669
719.36	16.662
719.57	16.673
719.78	16.680
719.99	16.601
720.20	16.775
720.41	16.812
720.63	16.771
720.84	16.638
721.05	16.624
721.26	16.515
721.47	16.598
721.68	16.600
721.89	16.603
722.10	16.585
722.31	16.514
722.52	16.511
722.73	16.410
722.95	16.374
723.16	16.439
723.37	16.425
723.58	16.363
723.79	16.279
724.00	16.329
724.21	16.221
724.42	16.222
724.63	16.219
724.84	16.171
725.05	16.160
725.26	16.213
725.47	16.263
725.68	16.305
725.90	16.356
726.11	16.383
726.32	16.353
726.53	16.297
726.74	16.352
726.95	16.389
727.16	16.455
727.37	16.521
727.58	16.599
727.79	16.639
728.00	16.688
728.21	16.781
728.42	16.875
728.63	16.914
728.84	17.139
729.05	17.282
729.26	17.390
729.47	17.423
729.68	17.615
729.89	17.789
730.10	17.955
730.31	18.063
730.52	18.024
730.73	18.123
730.94	18.269
731.15	18.409
731.36	18.560
731.57	18.677
731.78	18.785
731.99	18.808
732.20	18.887
732.41	18.980
732.62	18.935
732.83	18.959
733.04	19.154
733.25	19.198
733.46	19.390
733.67	19.519
733.88	19.651
734.09	19.789
734.30	19.756
734.51	19.947
734.72	19.945
734.93	20.066
735.14	20.116
735.35	20.122
735.56	20.196
735.77	20.308
735.98	20.464
736.19	20.525
736.40	20.529
736.61	20.699
736.82	20.750
737.03	20.767
737.24	20.886
737.45	21.000
737.66	21.240
737.87	21.463
738.08	21.455
738.29	21.662
738.50	21.708
738.71	21.913
738.92	21.935
739.13	21.957
739.34	22.040
739.55	22.162
739.75	22.389
739.96	22.522
740.17	22.624
740.38	22.622
740.59	22.710
740.80	22.718
741.01	22.784
741.22	22.935
741.43	23.023
741.64	23.067
741.85	23.239
742.06	23.297
742.27	23.406
742.48	23.445
742.68	23.487
742.89	23.506
743.10	23.508
743.31	23.529
743.52	23.651
743.73	23.717
743.94	23.734
744.15	23.756
744.36	23.991
744.57	24.100
744.78	24.317
744.98	24.389
745.19	24.528
745.40	24.566
745.61	24.698
745.82	24.576
746.03	24.615
746.24	24.709
746.45	24.767
746.66	24.748
746.86	24.925
747.07	24.950
747.28	24.924
747.49	24.918
747.70	24.957
747.91	24.970
748.12	25.123
748.33	25.197
748.53	25.267
748.74	25.464
748.95	25.475
749.16	25.488
749.37	25.466
749.58	25.389
749.79	25.367
749.99	25.253
750.20	25.082
750.41	25.014
750.62	25.063
750.83	25.052
751.04	25.060
751.25	24.972
751.45	25.026
751.66	25.018
751.87	25.184
752.08	25.178
752.29	25.288
752.50	25.183
752.70	25.217
752.91	25.315
753.12	25.459
753.33	25.413
753.54	25.296
753.75	25.436
753.95	25.420
754.16	25.460
754.37	25.537
754.58	25.628
754.79	25.633
754.99	25.796
755.20	25.727
755.41	25.497
755.62	25.624
755.83	25.559
756.04	25.499
756.24	25.386
756.45	25.304
756.66	25.324
756.87	25.285
757.08	25.303
757.28	25.399
757.49	25.488
757.70	25.679
757.91	25.643
758.11	25.678
758.32	25.703
758.53	25.677
758.74	25.803
758.95	25.696
759.15	25.746
759.36	25.564
759.57	25.630
759.78	25.515
759.98	25.522
760.19	25.546
760.40	25.617
760.61	25.561
760.82	25.622
761.02	25.708
761.23	25.664
761.44	25.651
761.65	25.772
761.85	25.963
762.06	25.931
762.27	26.011
762.48	26.263
762.68	26.463
762.89	26.551
763.10	26.597
763.31	26.524
763.51	26.631
763.72	26.724
763.93	26.710
764.13	26.844
764.34	26.863
764.55	26.930
764.76	27.033
764.96	27.132
765.17	27.157
765.38	27.126
765.59	27.089
765.79	27.224
766.00	27.178
766.21	27.273
766.41	27.426
766.62	27.369
766.83	27.363
767.04	27.346
767.24	27.343
767.45	27.285
767.66	27.275
767.86	27.199
768.07	27.195
768.28	27.211
768.48	27.127
768.69	27.048
768.90	27.203
769.11	27.189
769.31	27.301
769.52	27.181
769.73	27.222
769.93	27.282
770.14	27.364
770.35	27.360
770.55	27.342
770.76	27.063
770.97	27.017
771.17	27.088
771.38	27.046
771.59	27.133
771.79	27.072
772.00	27.137
772.21	27.142
772.41	27.151
772.62	27.399
772.83	27.386
773.03	27.357
773.24	27.375
773.45	27.325
773.65	27.368
773.86	27.390
774.07	27.343
774.27	27.331
774.48	27.283
774.69	27.321
774.89	27.349
775.10	27.386
775.30	27.196
775.51	27.253
775.72	27.194
775.92	27.168
776.13	27.148
776.34	27.024
776.54	27.006
776.75	26.862
776.95	26.719
777.16	26.836
777.37	26.946
777.57	27.058
777.78	26.990
777.99	27.053
778.19	27.107
778.40	27.019
778.60	26.798
778.81	26.892
779.02	26.811
779.22	26.632
779.43	26.747
779.63	26.810
779.84	26.780
780.05	26.771
780.25	26.765
780.46	26.884
780.66	26.731
780.87	26.568
781.08	26.591
781.28	26.494
781.49	26.461
781.69	26.545
781.90	26.805
782.10	26.703
782.31	26.576
782.52	26.574
782.72	26.703
782.93	26.674
783.13	26.686
783.34	26.531
783.54	26.411
783.75	26.407
783.96	26.489
784.16	26.475
784.37	26.528
784.57	26.426
784.78	26.351
784.98	26.389
785.19	26.411
785.39	26.482
785.60	26.466
785.80	26.334
786.01	26.244
786.22	26.287
786.42	26.095
786.63	25.986
786.83	26.024
787.04	26.158
787.24	26.032
787.45	26.299
787.65	26.318
787.86	26.335
788.06	26.135
788.27	26.109
788.47	26.096
788.68	26.006
788.88	25.921
789.09	25.964
789.29	25.875
789.50	25.644
789.70	25.510
789.91	25.338
790.11	25.334
790.32	25.402
790.52	25.390
790.73	25.439
790.93	25.559
791.14	25.572
791.34	25.613
791.55	25.538
791.75	25.514
791.96	25.266
792.16	25.230
792.37	25.164
792.57	25.224
792.78	25.302
792.98	25.295
793.19	25.337
793.39	25.283
793.60	25.347
793.80	25.468
794.01	25.331
794.21	25.369
794.42	25.240
794.62	25.325
794.83	25.426
795.03	25.402
795.24	25.225
795.44	25.159
795.64	25.167
795.85	25.050
796.05	24.970
796.26	24.808
796.46	24.682
796.67	24.588
796.87	24.542
797.08	24.333
797.28	24.293
797.48	24.223
797.69	23.941
797.89	23.682
798.10	23.667
798.30	23.766
798.51	23.750
798.71	23.928
798.91	23.975
799.12	23.917
799.32	24.022
799.53	24.199
799.73	24.157
799.94	24.163
800.14	24.071
800.34	24.015
800.55	23.880
800.75	23.844
800.96	23.904
801.16	23.629
801.36	23.544
801.57	23.708
801.77	23.683
801.98	23.725
802.18	23.753
802.38	23.713
802.59	23.523
802.79	23.620
803.00	23.634
803.20	23.581
803.40	23.314
803.61	23.285
803.81	23.478
804.02	23.367
804.22	23.544
804.42	23.594
804.63	23.559
804.83	23.558
805.03	23.365
805.24	23.212
805.44	22.930
805.65	22.759
805.85	22.577
806.05	22.410
806.26	22.121
806.46	21.763
806.66	21.448
806.87	21.139
807.07	20.877
807.27	20.745
807.48	20.247
807.68	19.944
807.88	19.375
808.09	18.946
808.29	18.641
808.49	18.399
808.70	18.030
808.90	17.686
809.10	17.487
809.31	17.430
809.51	17.152
809.71	17.143
809.92	17.031
810.12	17.169
810.32	17.242
810.53	17.499
810.73	17.600
810.93	17.886
811.14	18.362
811.34	18.843
811.54	19.351
811.75	19.894
811.95	20.234
812.15	20.676
812.36	21.105
812.56	21.664
812.76	22.121
812.96	22.378
813.17	22.713
813.37	23.164
813.57	23.644
813.78	23.782
813.98	24.016
814.18	24.202
814.38	24.462
814.59	24.735
814.79	25.269
814.99	25.713
815.20	26.001
815.40	26.002
815.60	26.101
815.80	26.230
816.01	26.242
816.21	26.380
816.41	26.402
816.62	26.198
816.82	26.208
817.02	26.092
817.22	26.042
817.43	25.691
817.63	25.629
817.83	25.091
818.03	24.741
818.24	24.237
818.44	23.645
818.64	23.088
818.84	22.278
819.05	21.511
819.25	20.767
819.45	19.865
819.65	18.906
819.86	18.058
820.06	17.108
820.26	16.260
820.46	15.489
820.66	14.753
820.87	14.091
821.07	13.465
821.27	12.989
821.47	12.649
821.68	12.702
821.88	12.554
822.08	12.737
822.28	13.177
>>>>>End Spectral Data<<<<<
