OOIBase32 Version 2.0.1.4 Data File
++++++++++++++++++++++++++++++++++++
Date: 11-03-2025, 09:54:53
User: Valued Ocean Optics Customer
Spectrometer Serial Number: HR2B216
Spectrometer Channel: Master
Integration Time (msec): 5
Spectra Averaged: 80
Boxcar Smoothing: 0
Correct for Electrical Dark: Disabled
Time Normalized: Disabled
Dual-beam Reference: Disabled
Reference Channel: Master
Temperature: Not acquired
Spectrometer Type: S2000
ADC Type: HR2000
Number of Pixels in File: 2048
Graph Title: 
>>>>>Begin Spectral Data<<<<<
373.12	0.000
373.35	-366.684
373.59	-512.466
373.82	27.271
374.06	-89.284
374.29	-20.408
374.53	-31.372
374.76	-284.619
375.00	58.334
375.23	-3.448
375.47	40.245
375.70	49.138
375.94	2.354
376.17	11.537
376.40	-2400.611
376.64	-38.712
376.87	-96.429
377.11	-1075.111
377.34	-29.033
377.58	-56.252
377.81	-378.568
378.05	-142.861
378.28	15.873
378.52	85.712
378.75	-239.990
378.99	-56.001
379.22	-4.167
379.45	6.993
379.69	-8.235
379.92	17.351
380.16	-10.170
380.39	4.102
380.63	27.801
380.86	10.757
381.10	27.311
381.33	12.093
381.56	11.940
381.80	19.584
382.03	-3.571
382.27	16.129
382.50	-11.066
382.74	2.370
382.97	20.351
383.21	22.039
383.44	13.127
383.67	5.085
383.91	24.542
384.14	14.391
384.38	33.981
384.61	23.308
384.84	7.117
385.08	1.128
385.31	16.839
385.55	25.962
385.78	5.019
386.02	12.400
386.25	2.302
386.48	1.704
386.72	5.732
386.95	17.771
387.19	-4.437
387.42	11.527
387.65	-5.387
387.89	23.913
388.12	24.074
388.36	33.333
388.59	9.119
388.82	-2.687
389.06	20.000
389.29	1.479
389.53	19.209
389.76	12.069
389.99	12.295
390.23	16.197
390.46	14.213
390.70	29.327
390.93	10.056
391.16	-0.542
391.40	10.571
391.63	14.407
391.87	7.692
392.10	0.000
392.33	17.199
392.57	8.768
392.80	2.613
393.03	10.458
393.27	14.644
393.50	10.084
393.74	13.801
393.97	8.811
394.20	8.230
394.44	14.063
394.67	10.621
394.90	11.297
395.14	14.259
395.37	21.363
395.60	5.977
395.84	10.417
396.07	9.702
396.31	7.252
396.54	6.936
396.77	10.557
397.01	14.168
397.24	8.348
397.47	8.808
397.71	12.418
397.94	18.448
398.17	15.745
398.41	11.132
398.64	4.151
398.87	3.151
399.11	0.652
399.34	11.042
399.57	15.188
399.81	6.532
400.04	12.801
400.27	7.246
400.51	5.128
400.74	14.106
400.97	7.790
401.21	13.175
401.44	15.080
401.67	2.595
401.91	2.413
402.14	13.813
402.37	6.414
402.61	10.961
402.84	12.149
403.07	11.126
403.31	8.957
403.54	8.701
403.77	14.076
404.00	10.127
404.24	11.622
404.47	12.412
404.70	11.243
404.94	6.714
405.17	8.990
405.40	10.407
405.64	9.184
405.87	9.873
406.10	12.486
406.34	12.616
406.57	10.870
406.80	8.099
407.03	6.667
407.27	12.177
407.50	7.545
407.73	11.881
407.97	6.950
408.20	9.154
408.43	10.806
408.66	6.897
408.90	14.008
409.13	14.645
409.36	6.755
409.60	12.350
409.83	8.847
410.06	9.770
410.29	9.016
410.53	11.391
410.76	9.660
410.99	11.350
411.22	8.606
411.46	7.007
411.69	12.829
411.92	4.593
412.16	9.113
412.39	15.147
412.62	12.685
412.85	13.943
413.09	9.401
413.32	9.168
413.55	7.477
413.78	13.313
414.02	6.951
414.25	8.939
414.48	7.997
414.71	12.055
414.95	8.686
415.18	11.413
415.41	8.558
415.64	11.314
415.88	7.661
416.11	9.763
416.34	8.814
416.57	7.120
416.80	10.640
417.04	10.372
417.27	9.215
417.50	11.700
417.73	11.857
417.97	11.793
418.20	7.631
418.43	8.793
418.66	10.298
418.90	12.486
419.13	8.984
419.36	8.329
419.59	12.373
419.82	12.500
420.06	9.229
420.29	6.627
420.52	7.870
420.75	9.468
420.98	9.757
421.22	11.140
421.45	7.567
421.68	9.606
421.91	10.925
422.15	11.143
422.38	11.357
422.61	12.570
422.84	11.135
423.07	11.840
423.31	10.423
423.54	11.650
423.77	12.976
424.00	9.787
424.23	10.043
424.46	11.004
424.70	9.875
424.93	11.804
425.16	13.008
425.39	13.691
425.62	12.254
425.86	13.604
426.09	12.623
426.32	12.495
426.55	13.175
426.78	12.500
427.01	13.403
427.25	14.757
427.48	11.574
427.71	12.529
427.94	13.797
428.17	14.453
428.40	12.461
428.64	13.944
428.87	13.640
429.10	14.218
429.33	14.037
429.56	11.833
429.79	13.606
430.03	12.980
430.26	15.308
430.49	14.660
430.72	14.122
430.95	13.790
431.18	13.409
431.42	14.514
431.65	16.369
431.88	13.080
432.11	14.302
432.34	15.475
432.57	15.028
432.80	13.541
433.04	14.589
433.27	16.011
433.50	17.161
433.73	15.769
433.96	15.329
434.19	16.006
434.42	15.046
434.65	16.422
434.89	16.928
435.12	16.147
435.35	17.490
435.58	17.536
435.81	17.088
436.04	16.299
436.27	16.766
436.50	18.006
436.74	18.013
436.97	17.409
437.20	17.789
437.43	19.297
437.66	18.025
437.89	18.257
438.12	16.389
438.35	18.273
438.58	19.034
438.82	18.721
439.05	19.158
439.28	19.583
439.51	18.531
439.74	18.934
439.97	19.669
440.20	18.917
440.43	19.888
440.66	20.568
440.89	20.092
441.12	20.780
441.36	21.389
441.59	20.738
441.82	20.853
442.05	20.838
442.28	21.356
442.51	22.116
442.74	22.056
442.97	23.161
443.20	22.999
443.43	23.272
443.66	22.797
443.89	23.583
444.13	23.668
444.36	23.995
444.59	24.326
444.82	23.022
445.05	24.140
445.28	24.877
445.51	24.573
445.74	25.693
445.97	25.071
446.20	25.271
446.43	25.413
446.66	25.833
446.89	25.597
447.12	26.184
447.35	26.907
447.58	27.533
447.81	28.110
448.05	27.438
448.28	27.945
448.51	28.161
448.74	28.223
448.97	28.822
449.20	28.851
449.43	28.385
449.66	29.238
449.89	30.657
450.12	29.960
450.35	31.977
450.58	30.964
450.81	30.910
451.04	31.780
451.27	31.487
451.50	31.353
451.73	31.877
451.96	31.945
452.19	33.245
452.42	33.267
452.65	33.935
452.88	33.543
453.11	33.230
453.34	34.052
453.57	34.945
453.80	34.965
454.03	35.122
454.26	35.614
454.49	36.138
454.72	35.848
454.95	36.508
455.18	36.647
455.41	37.033
455.64	38.141
455.87	38.088
456.10	38.216
456.33	37.517
456.56	38.884
456.79	38.958
457.02	39.250
457.25	40.111
457.48	40.043
457.71	40.184
457.94	40.366
458.17	40.941
458.40	40.864
458.63	42.313
458.86	42.031
459.09	41.438
459.32	43.094
459.55	42.654
459.78	43.043
460.01	44.977
460.24	44.233
460.47	44.237
460.70	44.658
460.93	45.648
461.16	45.684
461.39	45.518
461.62	46.258
461.85	46.489
462.08	47.056
462.31	47.421
462.54	47.298
462.77	47.454
463.00	48.218
463.22	48.833
463.45	49.742
463.68	49.190
463.91	49.187
464.14	49.750
464.37	49.661
464.60	50.612
464.83	50.223
465.06	51.100
465.29	52.175
465.52	51.306
465.75	51.990
465.98	52.467
466.21	52.906
466.44	53.150
466.67	53.828
466.90	53.704
467.12	54.113
467.35	54.632
467.58	54.161
467.81	54.853
468.04	54.989
468.27	55.064
468.50	55.725
468.73	56.003
468.96	55.928
469.19	56.213
469.42	57.058
469.65	56.953
469.87	57.459
470.10	58.759
470.33	57.932
470.56	58.299
470.79	58.185
471.02	58.686
471.25	58.569
471.48	59.221
471.71	59.604
471.94	60.042
472.17	59.702
472.39	59.533
472.62	60.696
472.85	60.437
473.08	60.817
473.31	60.788
473.54	61.228
473.77	61.518
474.00	61.727
474.23	62.087
474.45	62.133
474.68	62.884
474.91	62.925
475.14	63.119
475.37	63.452
475.60	64.013
475.83	63.994
476.06	63.848
476.28	65.164
476.51	65.118
476.74	65.504
476.97	65.474
477.20	65.469
477.43	65.448
477.66	66.733
477.88	65.961
478.11	65.940
478.34	65.922
478.57	66.492
478.80	67.005
479.03	67.611
479.26	67.788
479.48	67.371
479.71	67.811
479.94	68.325
480.17	67.978
480.40	67.926
480.63	68.586
480.86	68.347
481.08	68.346
481.31	68.531
481.54	68.912
481.77	69.018
482.00	69.114
482.23	69.197
482.45	69.637
482.68	69.798
482.91	70.081
483.14	70.305
483.37	70.862
483.60	70.966
483.82	70.859
484.05	70.533
484.28	71.095
484.51	70.865
484.74	70.952
484.96	71.067
485.19	71.163
485.42	71.455
485.65	70.749
485.88	70.706
486.10	71.127
486.33	70.603
486.56	70.844
486.79	71.406
487.02	71.302
487.25	72.073
487.47	72.198
487.70	73.073
487.93	73.209
488.16	72.996
488.39	73.557
488.61	72.920
488.84	73.204
489.07	73.637
489.30	73.705
489.52	73.251
489.75	73.542
489.98	73.823
490.21	73.813
490.44	73.738
490.66	73.838
490.89	74.038
491.12	74.291
491.35	74.401
491.57	74.234
491.80	74.648
492.03	74.405
492.26	74.298
492.49	74.251
492.71	74.222
492.94	73.957
493.17	73.986
493.40	73.913
493.62	74.009
493.85	74.428
494.08	74.405
494.31	74.404
494.53	74.624
494.76	74.760
494.99	74.966
495.22	74.937
495.44	75.083
495.67	75.532
495.90	74.919
496.13	74.629
496.35	74.559
496.58	74.944
496.81	75.640
497.04	76.140
497.26	75.487
497.49	75.292
497.72	75.417
497.95	75.704
498.17	76.274
498.40	76.631
498.63	76.656
498.85	76.275
499.08	76.254
499.31	76.162
499.54	75.652
499.76	76.140
499.99	76.538
500.22	76.456
500.44	76.187
500.67	76.351
500.90	76.480
501.13	76.732
501.35	76.598
501.58	76.745
501.81	76.679
502.03	76.463
502.26	76.688
502.49	76.362
502.72	76.279
502.94	76.616
503.17	77.260
503.40	77.048
503.62	77.100
503.85	76.791
504.08	76.908
504.30	76.919
504.53	76.678
504.76	77.065
504.98	76.677
505.21	77.001
505.44	77.160
505.67	77.254
505.89	77.506
506.12	77.745
506.35	77.224
506.57	77.218
506.80	76.758
507.03	77.158
507.25	76.795
507.48	77.132
507.71	77.333
507.93	77.525
508.16	77.260
508.39	77.379
508.61	77.353
508.84	77.610
509.07	77.706
509.29	78.167
509.52	77.824
509.75	78.118
509.97	78.168
510.20	78.047
510.43	78.202
510.65	77.889
510.88	77.941
511.10	78.470
511.33	78.225
511.56	78.028
511.78	78.348
512.01	78.310
512.24	78.193
512.46	78.093
512.69	77.886
512.92	77.742
513.14	77.433
513.37	77.507
513.59	77.765
513.82	77.763
514.05	77.922
514.27	77.996
514.50	77.808
514.73	77.265
514.95	77.341
515.18	77.778
515.40	77.791
515.63	77.865
515.86	78.175
516.08	78.320
516.31	77.904
516.54	77.727
516.76	78.013
516.99	78.391
517.21	78.563
517.44	78.265
517.67	77.742
517.89	77.905
518.12	77.618
518.34	77.623
518.57	77.383
518.80	77.104
519.02	76.799
519.25	76.434
519.47	76.617
519.70	77.199
519.93	77.819
520.15	78.178
520.38	78.388
520.60	78.346
520.83	78.552
521.05	78.611
521.28	78.411
521.51	78.218
521.73	78.396
521.96	78.347
522.18	78.235
522.41	78.185
522.63	78.333
522.86	78.124
523.09	77.501
523.31	77.862
523.54	78.209
523.76	78.124
523.99	77.948
524.21	78.131
524.44	78.297
524.67	78.224
524.89	78.138
525.12	78.035
525.34	78.072
525.57	78.322
525.79	78.029
526.02	78.237
526.24	78.541
526.47	78.337
526.69	78.576
526.92	78.446
527.15	78.853
527.37	79.050
527.60	78.709
527.82	78.581
528.05	78.844
528.27	78.780
528.50	78.506
528.72	78.012
528.95	77.933
529.17	77.708
529.40	77.824
529.62	77.687
529.85	77.906
530.07	78.085
530.30	78.235
530.52	78.039
530.75	78.269
530.98	78.365
531.20	78.486
531.43	78.278
531.65	78.461
531.88	78.244
532.10	78.596
532.33	78.847
532.55	79.192
532.78	79.085
533.00	78.931
533.23	78.948
533.45	78.395
533.68	78.376
533.90	78.507
534.13	78.301
534.35	78.257
534.58	78.291
534.80	78.345
535.03	78.402
535.25	78.543
535.47	78.512
535.70	78.559
535.92	78.789
536.15	79.090
536.37	79.126
536.60	78.844
536.82	78.740
537.05	78.441
537.27	77.868
537.50	77.696
537.72	77.626
537.95	77.653
538.17	77.614
538.40	77.841
538.62	77.903
538.85	78.184
539.07	77.833
539.29	77.748
539.52	77.602
539.74	77.773
539.97	78.084
540.19	78.481
540.42	78.680
540.64	78.625
540.87	78.605
541.09	78.591
541.32	78.613
541.54	78.549
541.76	78.347
541.99	78.258
542.21	77.998
542.44	77.796
542.66	77.859
542.89	77.909
543.11	78.292
543.33	78.358
543.56	78.205
543.78	78.502
544.01	78.283
544.23	78.471
544.46	78.242
544.68	78.366
544.90	78.373
545.13	78.017
545.35	77.597
545.58	77.607
545.80	77.860
546.03	78.119
546.25	77.881
546.47	78.213
546.70	78.240
546.92	78.450
547.15	78.300
547.37	78.154
547.59	77.944
547.82	77.973
548.04	77.754
548.27	77.723
548.49	77.805
548.71	77.688
548.94	77.686
549.16	77.624
549.39	77.501
549.61	77.478
549.83	77.598
550.06	78.018
550.28	78.560
550.50	78.914
550.73	78.722
550.95	78.708
551.18	78.478
551.40	78.203
551.62	78.107
551.85	78.047
552.07	77.685
552.29	77.821
552.52	77.785
552.74	77.964
552.97	77.846
553.19	77.860
553.41	77.827
553.64	78.096
553.86	78.241
554.08	78.469
554.31	78.387
554.53	78.279
554.75	78.202
554.98	78.725
555.20	78.871
555.42	78.697
555.65	78.063
555.87	77.793
556.10	77.522
556.32	77.447
556.54	77.323
556.77	77.666
556.99	77.492
557.21	77.768
557.44	77.871
557.66	77.702
557.88	77.916
558.11	77.919
558.33	78.059
558.55	78.329
558.78	78.218
559.00	78.210
559.22	78.430
559.44	78.750
559.67	78.764
559.89	78.903
560.11	78.769
560.34	78.877
560.56	78.790
560.78	79.242
561.01	79.206
561.23	79.068
561.45	78.677
561.68	78.321
561.90	78.255
562.12	78.172
562.35	78.407
562.57	78.263
562.79	78.092
563.01	78.128
563.24	78.000
563.46	78.093
563.68	78.497
563.91	78.682
564.13	78.604
564.35	78.758
564.57	78.899
564.80	79.172
565.02	79.120
565.24	78.866
565.47	78.487
565.69	78.402
565.91	78.379
566.13	78.526
566.36	78.428
566.58	78.352
566.80	77.990
567.02	78.225
567.25	78.320
567.47	78.542
567.69	78.750
567.92	78.555
568.14	78.127
568.36	77.872
568.58	77.489
568.81	77.234
569.03	77.509
569.25	77.963
569.47	78.172
569.70	78.669
569.92	78.764
570.14	79.113
570.36	79.074
570.59	79.079
570.81	78.914
571.03	78.909
571.25	78.921
571.47	78.698
571.70	78.765
571.92	78.891
572.14	79.188
572.36	79.039
572.59	78.952
572.81	79.093
573.03	79.043
573.25	78.965
573.48	78.937
573.70	78.757
573.92	78.591
574.14	78.666
574.36	78.774
574.59	78.759
574.81	78.674
575.03	78.563
575.25	78.277
575.47	77.948
575.70	77.841
575.92	78.236
576.14	78.500
576.36	78.925
576.59	79.195
576.81	79.332
577.03	79.383
577.25	79.506
577.47	79.252
577.69	78.828
577.92	78.668
578.14	78.285
578.36	78.102
578.58	78.058
578.80	78.407
579.03	78.518
579.25	78.323
579.47	78.311
579.69	77.978
579.91	77.870
580.14	78.076
580.36	77.950
580.58	78.031
580.80	78.094
581.02	78.365
581.24	78.501
581.47	78.624
581.69	78.715
581.91	78.878
582.13	79.107
582.35	79.104
582.57	78.943
582.79	79.086
583.02	78.734
583.24	78.544
583.46	78.531
583.68	78.441
583.90	78.675
584.12	78.485
584.35	78.264
584.57	77.935
584.79	77.880
585.01	77.789
585.23	78.083
585.45	78.319
585.67	78.553
585.90	78.973
586.12	78.988
586.34	78.724
586.56	78.573
586.78	78.308
587.00	78.045
587.22	77.698
587.44	77.489
587.67	77.740
587.89	77.886
588.11	77.689
588.33	77.646
588.55	77.530
588.77	77.650
588.99	77.833
589.21	77.848
589.43	77.893
589.66	77.708
589.88	78.077
590.10	78.576
590.32	78.981
590.54	79.024
590.76	79.295
590.98	79.040
591.20	79.022
591.42	78.670
591.64	78.611
591.87	78.796
592.09	78.810
592.31	78.501
592.53	78.639
592.75	78.334
592.97	78.588
593.19	78.508
593.41	78.850
593.63	78.882
593.85	78.680
594.07	78.882
594.29	78.912
594.52	78.852
594.74	78.637
594.96	78.391
595.18	78.382
595.40	78.644
595.62	78.578
595.84	78.683
596.06	78.674
596.28	78.992
596.50	79.129
596.72	78.736
596.94	78.535
597.16	78.453
597.38	78.475
597.60	78.290
597.82	78.338
598.05	78.255
598.27	78.340
598.49	78.072
598.71	77.961
598.93	78.222
599.15	78.282
599.37	78.422
599.59	78.311
599.81	78.383
600.03	78.420
600.25	78.680
600.47	78.738
600.69	78.733
600.91	78.737
601.13	78.613
601.35	78.442
601.57	78.363
601.79	77.834
602.01	77.701
602.23	77.402
602.45	77.383
602.67	77.659
602.89	78.045
603.11	78.354
603.33	78.774
603.55	79.211
603.77	79.573
603.99	79.940
604.21	79.644
604.43	79.662
604.65	79.789
604.87	79.351
605.09	79.068
605.31	78.634
605.53	78.953
605.75	79.042
605.97	79.265
606.19	79.394
606.41	79.448
606.63	79.546
606.85	79.844
607.07	79.845
607.29	79.707
607.51	79.478
607.73	79.609
607.95	79.866
608.17	79.982
608.39	79.510
608.61	78.856
608.83	78.717
609.05	78.894
609.27	78.923
609.49	79.117
609.71	79.040
609.93	79.039
610.15	78.908
610.37	79.105
610.59	79.059
610.81	79.064
611.03	79.008
611.24	79.332
611.46	79.588
611.68	79.631
611.90	79.503
612.12	79.050
612.34	78.907
612.56	78.768
612.78	78.716
613.00	78.479
613.22	78.424
613.44	78.553
613.66	78.610
613.88	78.966
614.10	79.085
614.32	79.157
614.54	79.290
614.75	79.509
614.97	79.423
615.19	78.953
615.41	78.834
615.63	78.791
615.85	78.718
616.07	78.564
616.29	78.443
616.51	78.325
616.73	78.886
616.95	78.888
617.17	79.073
617.38	79.343
617.60	79.367
617.82	79.649
618.04	79.781
618.26	79.907
618.48	80.226
618.70	80.407
618.92	80.284
619.14	80.213
619.36	80.090
619.57	79.877
619.79	79.993
620.01	80.075
620.23	79.924
620.45	79.790
620.67	79.609
620.89	79.429
621.11	79.175
621.33	79.717
621.54	80.138
621.76	79.922
621.98	79.788
622.20	79.598
622.42	78.993
622.64	78.951
622.86	79.277
623.07	79.785
623.29	80.199
623.51	80.535
623.73	80.237
623.95	79.888
624.17	79.380
624.39	79.335
624.60	79.283
624.82	79.255
625.04	79.315
625.26	79.669
625.48	80.071
625.70	80.347
625.92	80.076
626.13	79.995
626.35	79.887
626.57	80.086
626.79	80.333
627.01	80.629
627.23	80.795
627.44	80.621
627.66	80.541
627.88	80.601
628.10	80.374
628.32	80.105
628.54	79.837
628.75	80.072
628.97	80.470
629.19	80.920
629.41	81.083
629.63	80.806
629.84	80.553
630.06	80.201
630.28	80.098
630.50	80.311
630.72	80.493
630.94	80.298
631.15	80.239
631.37	80.150
631.59	79.965
631.81	80.152
632.03	80.262
632.24	80.315
632.46	80.151
632.68	80.489
632.90	80.690
633.11	80.974
633.33	81.012
633.55	80.665
633.77	80.323
633.99	80.069
634.20	80.136
634.42	80.481
634.64	80.492
634.86	80.371
635.08	80.442
635.29	80.708
635.51	80.653
635.73	80.658
635.95	80.465
636.16	80.440
636.38	80.656
636.60	80.685
636.82	80.646
637.03	80.524
637.25	79.899
637.47	79.327
637.69	79.169
637.90	78.840
638.12	78.979
638.34	79.150
638.56	79.382
638.77	78.943
638.99	78.902
639.21	79.258
639.43	79.519
639.64	79.824
639.86	80.234
640.08	80.404
640.30	80.248
640.51	80.338
640.73	80.376
640.95	80.447
641.17	80.723
641.38	80.963
641.60	80.997
641.82	81.227
642.03	81.150
642.25	80.689
642.47	80.548
642.69	80.283
642.90	79.965
643.12	79.992
643.34	80.108
643.55	80.385
643.77	80.729
643.99	81.098
644.21	81.168
644.42	80.920
644.64	80.269
644.86	79.971
645.07	79.931
645.29	79.834
645.51	80.041
645.73	80.305
645.94	80.512
646.16	80.400
646.38	80.156
646.59	79.543
646.81	79.715
647.03	79.926
647.24	79.923
647.46	79.992
647.68	79.925
647.89	80.008
648.11	80.192
648.33	80.631
648.54	81.080
648.76	81.381
648.98	81.386
649.19	81.520
649.41	81.173
649.63	80.908
649.84	80.609
650.06	80.256
650.28	80.275
650.49	80.289
650.71	80.419
650.93	80.427
651.14	80.390
651.36	80.327
651.58	80.287
651.79	80.057
652.01	80.038
652.23	80.269
652.44	80.420
652.66	80.763
652.88	80.706
653.09	80.996
653.31	80.905
653.52	80.949
653.74	81.078
653.96	81.109
654.17	81.207
654.39	81.164
654.61	81.533
654.82	81.578
655.04	81.401
655.25	81.206
655.47	80.709
655.69	80.295
655.90	80.381
656.12	80.409
656.34	80.570
656.55	80.733
656.77	80.923
656.98	80.759
657.20	80.585
657.42	80.682
657.63	80.362
657.85	80.502
658.06	80.918
658.28	81.024
658.50	80.918
658.71	81.012
658.93	80.868
659.14	80.822
659.36	80.847
659.58	80.776
659.79	80.876
660.01	80.569
660.22	80.317
660.44	80.192
660.65	80.089
660.87	80.248
661.09	80.743
661.30	80.790
661.52	80.871
661.73	80.964
661.95	80.868
662.16	80.585
662.38	80.438
662.60	80.464
662.81	80.635
663.03	80.970
663.24	81.205
663.46	81.553
663.67	81.910
663.89	81.531
664.11	81.516
664.32	81.350
664.54	81.102
664.75	80.893
664.97	81.137
665.18	81.464
665.40	81.290
665.61	80.825
665.83	80.414
666.04	80.343
666.26	80.662
666.48	80.993
666.69	81.413
666.91	81.533
667.12	81.540
667.34	81.416
667.55	81.269
667.77	81.119
667.98	80.930
668.20	81.176
668.41	81.299
668.63	81.734
668.84	81.852
669.06	81.947
669.27	82.218
669.49	82.264
669.70	82.369
669.92	82.260
670.13	81.832
670.35	81.934
670.56	82.017
670.78	81.633
670.99	81.119
671.21	81.107
671.42	81.086
671.64	81.126
671.85	81.301
672.07	81.255
672.28	80.724
672.50	80.066
672.71	79.935
672.93	80.214
673.14	80.514
673.36	80.624
673.57	81.075
673.79	81.170
674.00	81.176
674.22	81.478
674.43	81.391
674.65	81.522
674.86	81.655
675.08	81.258
675.29	80.948
675.50	80.875
675.72	80.961
675.93	80.709
676.15	80.530
676.36	80.300
676.58	80.541
676.79	80.953
677.01	80.983
677.22	80.983
677.44	81.037
677.65	81.375
677.86	81.717
678.08	82.172
678.29	82.213
678.51	82.096
678.72	82.069
678.94	82.189
679.15	82.093
679.37	82.025
679.58	82.273
679.79	82.137
680.01	81.833
680.22	81.524
680.44	81.232
680.65	81.086
680.87	81.113
681.08	81.024
681.29	81.252
681.51	81.250
681.72	81.341
681.94	81.705
682.15	81.676
682.36	81.788
682.58	82.088
682.79	82.148
683.01	81.983
683.22	81.716
683.43	81.895
683.65	82.037
683.86	81.643
684.08	81.503
684.29	81.750
684.50	81.767
684.72	81.761
684.93	81.462
685.15	81.232
685.36	81.865
685.57	82.205
685.79	82.430
686.00	82.503
686.22	82.335
686.43	81.923
686.64	81.774
686.86	81.499
687.07	81.049
687.28	81.200
687.50	81.494
687.71	81.599
687.93	81.623
688.14	81.697
688.35	81.546
688.57	81.746
688.78	81.546
688.99	81.195
689.21	81.318
689.42	81.714
689.63	81.924
689.85	82.009
690.06	82.181
690.27	81.770
690.49	82.004
690.70	81.998
690.91	82.123
691.13	81.675
691.34	81.957
691.56	82.102
691.77	82.049
691.98	81.583
692.20	81.488
692.41	81.775
692.62	82.182
692.84	82.739
693.05	82.769
693.26	82.666
693.47	82.666
693.69	82.428
693.90	82.348
694.11	82.303
694.33	82.105
694.54	82.186
694.75	82.151
694.97	82.032
695.18	82.163
695.39	82.039
695.61	82.077
695.82	81.799
696.03	81.779
696.25	81.657
696.46	81.809
696.67	81.492
696.88	81.465
697.10	81.654
697.31	81.976
697.52	81.975
697.74	82.036
697.95	82.417
698.16	82.296
698.37	82.238
698.59	82.364
698.80	81.976
699.01	81.895
699.23	81.828
699.44	81.755
699.65	81.907
699.86	81.901
700.08	82.184
700.29	82.416
700.50	82.174
700.71	81.972
700.93	81.814
701.14	81.895
701.35	82.070
701.56	81.935
701.78	81.501
701.99	81.399
702.20	81.700
702.41	81.719
702.63	81.892
702.84	81.529
703.05	81.168
703.26	81.138
703.48	81.326
703.69	81.637
703.90	81.714
704.11	81.851
704.33	82.246
704.54	82.445
704.75	82.292
704.96	82.448
705.18	82.579
705.39	82.343
705.60	82.185
705.81	81.930
706.02	81.446
706.24	81.329
706.45	81.005
706.66	81.216
706.87	81.424
707.09	82.026
707.30	82.396
707.51	82.631
707.72	82.477
707.93	81.970
708.15	82.194
708.36	82.139
708.57	81.977
708.78	81.858
708.99	81.945
709.21	82.242
709.42	82.397
709.63	82.492
709.84	82.495
710.05	82.200
710.27	82.025
710.48	82.140
710.69	81.788
710.90	81.134
711.11	81.066
711.32	81.222
711.54	81.593
711.75	81.929
711.96	82.643
712.17	83.043
712.38	83.066
712.59	82.457
712.81	82.266
713.02	82.043
713.23	82.283
713.44	82.484
713.65	82.875
713.86	83.003
714.08	83.063
714.29	82.945
714.50	82.658
714.71	82.510
714.92	82.536
715.13	82.650
715.34	82.123
715.56	81.576
715.77	81.551
715.98	81.642
716.19	81.527
716.40	81.516
716.61	82.094
716.82	82.528
717.04	82.848
717.25	82.707
717.46	82.552
717.67	82.418
717.88	82.339
718.09	81.836
718.30	81.906
718.51	82.107
718.73	81.972
718.94	81.738
719.15	81.634
719.36	81.446
719.57	81.552
719.78	81.938
719.99	81.991
720.20	82.170
720.41	82.034
720.63	82.249
720.84	82.071
721.05	82.179
721.26	81.981
721.47	81.680
721.68	81.329
721.89	81.174
722.10	81.869
722.31	82.240
722.52	81.732
722.73	81.379
722.95	81.557
723.16	81.671
723.37	81.779
723.58	82.077
723.79	82.364
724.00	82.286
724.21	82.162
724.42	81.708
724.63	81.078
724.84	81.396
725.05	81.311
725.26	81.437
725.47	81.216
725.68	81.127
725.90	81.165
726.11	80.778
726.32	80.884
726.53	81.169
726.74	81.066
726.95	80.838
727.16	80.832
727.37	81.091
727.58	81.531
727.79	81.451
728.00	81.597
728.21	81.823
728.42	81.858
728.63	81.654
728.84	81.885
729.05	82.226
729.26	82.667
729.47	82.586
729.68	82.030
729.89	81.921
730.10	81.902
730.31	82.121
730.52	82.005
730.73	81.914
730.94	81.888
731.15	81.476
731.36	81.377
731.57	81.542
731.78	81.676
731.99	81.924
732.20	82.201
732.41	81.999
732.62	81.647
732.83	81.468
733.04	81.416
733.25	81.291
733.46	81.251
733.67	81.636
733.88	81.897
734.09	82.043
734.30	82.171
734.51	82.627
734.72	83.071
734.93	82.347
735.14	82.266
735.35	82.115
735.56	82.179
735.77	82.345
735.98	82.610
736.19	82.336
736.40	81.948
736.61	81.837
736.82	81.946
737.03	82.136
737.24	82.042
737.45	81.722
737.66	81.521
737.87	81.623
738.08	81.309
738.29	81.718
738.50	81.710
738.71	81.536
738.92	81.523
739.13	81.687
739.34	82.051
739.55	82.632
739.75	82.797
739.96	82.421
740.17	82.008
740.38	82.305
740.59	82.391
740.80	82.263
741.01	82.221
741.22	82.419
741.43	82.371
741.64	82.264
741.85	82.111
742.06	81.728
742.27	81.513
742.48	81.556
742.68	81.579
742.89	81.163
743.10	81.464
743.31	81.585
743.52	81.290
743.73	81.243
743.94	80.962
744.15	81.200
744.36	81.467
744.57	81.336
744.78	81.158
744.98	81.331
745.19	81.916
745.40	82.409
745.61	82.558
745.82	82.886
746.03	83.042
746.24	82.980
746.45	82.900
746.66	82.966
746.86	83.085
747.07	83.067
747.28	83.319
747.49	83.177
747.70	83.414
747.91	83.559
748.12	83.504
748.33	82.625
748.53	82.202
748.74	81.757
748.95	81.714
749.16	82.133
749.37	82.202
749.58	82.203
749.79	81.942
749.99	81.738
750.20	82.026
750.41	82.374
750.62	82.309
750.83	82.364
751.04	82.591
751.25	82.724
751.45	82.524
751.66	82.664
751.87	82.495
752.08	81.946
752.29	81.255
752.50	80.762
752.70	80.441
752.91	80.857
753.12	81.625
753.33	81.942
753.54	82.282
753.75	82.412
753.95	81.622
754.16	81.273
754.37	81.170
754.58	81.708
754.79	81.284
754.99	81.263
755.20	81.104
755.41	80.422
755.62	80.324
755.83	80.455
756.04	80.869
756.24	81.192
756.45	81.304
756.66	81.722
756.87	81.596
757.08	81.366
757.28	81.266
757.49	81.328
757.70	80.762
757.91	80.675
758.11	80.803
758.32	81.530
758.53	81.728
758.74	81.924
758.95	81.761
759.15	81.599
759.36	81.666
759.57	81.708
759.78	81.867
759.98	81.297
760.19	81.175
760.40	81.616
760.61	81.918
760.82	81.982
761.02	82.298
761.23	82.500
761.44	82.818
761.65	83.096
761.85	82.612
762.06	82.570
762.27	82.300
762.48	82.004
762.68	82.176
762.89	82.329
763.10	82.159
763.31	81.749
763.51	81.414
763.72	81.704
763.93	82.390
764.13	82.549
764.34	82.388
764.55	82.088
764.76	81.870
764.96	81.587
765.17	81.472
765.38	81.463
765.59	81.656
765.79	82.306
766.00	82.505
766.21	82.732
766.41	82.423
766.62	82.403
766.83	82.146
767.04	81.790
767.24	81.849
767.45	81.858
767.66	81.636
767.86	81.439
768.07	81.272
768.28	81.153
768.48	81.486
768.69	81.150
768.90	81.185
769.11	80.952
769.31	80.548
769.52	80.025
769.73	79.965
769.93	79.986
770.14	80.762
770.35	80.854
770.55	81.099
770.76	81.566
770.97	81.727
771.17	81.374
771.38	81.029
771.59	80.996
771.79	80.585
772.00	80.434
772.21	80.502
772.41	80.855
772.62	81.348
772.83	81.351
773.03	81.073
773.24	81.077
773.45	80.860
773.65	80.923
773.86	81.012
774.07	81.072
774.27	81.382
774.48	81.274
774.69	81.427
774.89	81.663
775.10	81.610
775.30	81.149
775.51	80.868
775.72	80.755
775.92	80.781
776.13	80.697
776.34	80.829
776.54	80.687
776.75	81.070
776.95	81.205
777.16	81.186
777.37	81.462
777.57	81.437
777.78	81.275
777.99	81.180
778.19	81.183
778.40	81.133
778.60	80.502
778.81	80.390
779.02	80.188
779.22	79.983
779.43	80.128
779.63	80.463
779.84	80.248
780.05	80.634
780.25	80.727
780.46	80.339
780.66	80.150
780.87	80.394
781.08	80.522
781.28	80.342
781.49	80.626
781.69	80.781
781.90	81.018
782.10	81.168
782.31	81.607
782.52	81.435
782.72	81.256
782.93	81.039
783.13	81.467
783.34	81.184
783.54	80.738
783.75	81.113
783.96	80.858
784.16	81.117
784.37	80.572
784.57	81.304
784.78	81.036
784.98	80.836
785.19	81.041
785.39	80.718
785.60	80.586
785.80	80.656
786.01	80.922
786.22	81.278
786.42	81.437
786.63	81.140
786.83	80.726
787.04	80.848
787.24	80.716
787.45	80.786
787.65	81.079
787.86	81.701
788.06	81.596
788.27	81.691
788.47	81.575
788.68	81.574
788.88	81.715
789.09	81.605
789.29	81.427
789.50	81.483
789.70	81.451
789.91	81.133
790.11	80.854
790.32	80.848
790.52	80.773
790.73	80.269
790.93	80.207
791.14	80.679
791.34	80.818
791.55	80.755
791.75	80.789
791.96	80.777
792.16	80.676
792.37	80.590
792.57	80.467
792.78	80.833
792.98	81.199
793.19	81.124
793.39	81.132
793.60	81.811
793.80	81.692
794.01	81.321
794.21	81.624
794.42	81.377
794.62	81.418
794.83	81.174
795.03	81.219
795.24	81.302
795.44	81.172
795.64	81.389
795.85	81.644
796.05	81.764
796.26	81.676
796.46	81.834
796.67	81.882
796.87	82.052
797.08	82.295
797.28	81.934
797.48	81.728
797.69	81.700
797.89	81.570
798.10	81.749
798.30	81.679
798.51	81.443
798.71	81.410
798.91	81.569
799.12	81.797
799.32	81.563
799.53	81.298
799.73	81.246
799.94	81.231
800.14	81.051
800.34	81.123
800.55	80.578
800.75	80.521
800.96	80.734
801.16	80.124
801.36	80.358
801.57	80.588
801.77	81.001
801.98	81.385
802.18	81.406
802.38	81.467
802.59	81.288
802.79	81.318
803.00	80.893
803.20	80.610
803.40	80.358
803.61	80.500
803.81	80.218
804.02	80.575
804.22	80.621
804.42	80.850
804.63	80.958
804.83	80.509
805.03	80.174
805.24	80.072
805.44	80.099
805.65	80.023
805.85	79.821
806.05	80.013
806.26	79.731
806.46	79.389
806.66	79.044
806.87	78.725
807.07	78.616
807.27	78.797
807.48	79.144
807.68	79.567
807.88	79.847
808.09	79.495
808.29	79.643
808.49	79.410
808.70	78.798
808.90	78.729
809.10	78.521
809.31	78.550
809.51	77.712
809.71	77.412
809.92	77.706
810.12	77.623
810.32	77.777
810.53	78.061
810.73	78.210
810.93	78.723
811.14	79.170
811.34	79.985
811.54	80.659
811.75	80.744
811.95	81.164
812.15	80.666
812.36	80.298
812.56	80.580
812.76	80.694
812.96	80.963
813.17	80.387
813.37	80.498
813.57	79.917
813.78	79.936
813.98	79.399
814.18	79.240
814.38	78.932
814.59	78.694
814.79	78.801
814.99	79.156
815.20	80.016
815.40	80.400
815.60	80.494
815.80	80.123
816.01	80.294
816.21	80.294
816.41	79.815
816.62	79.373
816.82	78.678
817.02	78.606
817.22	78.390
817.43	77.869
817.63	78.081
817.83	78.066
818.03	78.010
818.24	77.926
818.44	77.921
818.64	77.806
818.84	78.295
819.05	78.586
819.25	78.458
819.45	78.506
819.65	78.623
819.86	79.002
820.06	78.982
820.26	78.676
820.46	78.999
820.66	78.596
820.87	78.533
821.07	78.579
821.27	78.700
821.47	78.548
821.68	78.480
821.88	78.525
822.08	78.900
822.28	79.552
>>>>>End Spectral Data<<<<<
