OOIBase32 Version 2.0.1.4 Data File
++++++++++++++++++++++++++++++++++++
Date: 11-03-2025, 11:03:44
User: Valued Ocean Optics Customer
Spectrometer Serial Number: HR2B216
Spectrometer Channel: Master
Integration Time (msec): 5
Spectra Averaged: 80
Boxcar Smoothing: 0
Correct for Electrical Dark: Disabled
Time Normalized: Disabled
Dual-beam Reference: Disabled
Reference Channel: Master
Temperature: Not acquired
Spectrometer Type: S2000
ADC Type: HR2000
Number of Pixels in File: 2048
Graph Title: 
>>>>>Begin Spectral Data<<<<<
373.12	0.000
373.35	0.000
373.59	0.000
373.82	0.000
374.06	0.000
374.29	0.000
374.53	0.000
374.76	0.000
375.00	0.000
375.23	0.000
375.47	0.000
375.70	0.000
375.94	0.000
376.17	0.000
376.40	0.000
376.64	0.000
376.87	0.000
377.11	0.000
377.34	0.000
377.58	0.000
377.81	0.000
378.05	0.000
378.28	0.000
378.52	0.000
378.75	0.000
378.99	0.000
379.22	0.000
379.45	0.000
379.69	0.000
379.92	0.000
380.16	0.000
380.39	1.857
380.63	0.000
380.86	0.000
381.10	0.000
381.33	0.000
381.56	0.000
381.80	0.000
382.03	0.000
382.27	0.000
382.50	0.000
382.74	0.000
382.97	0.000
383.21	0.000
383.44	0.000
383.67	0.000
383.91	0.000
384.14	0.000
384.38	0.000
384.61	0.000
384.84	0.000
385.08	0.000
385.31	0.000
385.55	0.000
385.78	0.000
386.02	0.000
386.25	0.000
386.48	0.000
386.72	0.000
386.95	1.308
387.19	0.000
387.42	0.000
387.65	0.000
387.89	0.000
388.12	0.000
388.36	0.000
388.59	0.000
388.82	0.000
389.06	0.000
389.29	0.000
389.53	0.000
389.76	0.885
389.99	0.000
390.23	0.000
390.46	0.000
390.70	0.000
390.93	0.000
391.16	0.000
391.40	0.000
391.63	0.000
391.87	0.000
392.10	0.000
392.33	0.000
392.57	0.000
392.80	0.000
393.03	0.000
393.27	0.000
393.50	0.000
393.74	0.000
393.97	0.000
394.20	0.000
394.44	0.000
394.67	0.000
394.90	0.000
395.14	0.000
395.37	0.000
395.60	0.000
395.84	0.000
396.07	0.000
396.31	0.000
396.54	0.000
396.77	0.000
397.01	2.215
397.24	0.000
397.47	0.000
397.71	0.000
397.94	0.000
398.17	0.000
398.41	0.000
398.64	0.000
398.87	0.000
399.11	0.000
399.34	0.000
399.57	0.000
399.81	0.000
400.04	0.000
400.27	0.000
400.51	0.000
400.74	0.000
400.97	0.000
401.21	0.000
401.44	0.000
401.67	0.000
401.91	0.000
402.14	0.000
402.37	0.000
402.61	0.000
402.84	0.000
403.07	0.000
403.31	0.000
403.54	0.000
403.77	0.000
404.00	0.000
404.24	0.000
404.47	0.000
404.70	0.000
404.94	0.000
405.17	0.000
405.40	0.000
405.64	0.000
405.87	0.000
406.10	0.000
406.34	0.000
406.57	1.550
406.80	0.000
407.03	0.000
407.27	0.000
407.50	1.487
407.73	0.000
407.97	0.000
408.20	0.000
408.43	0.000
408.66	0.000
408.90	0.000
409.13	0.000
409.36	1.591
409.60	2.176
409.83	0.000
410.06	0.000
410.29	0.000
410.53	0.000
410.76	0.000
410.99	0.000
411.22	0.000
411.46	0.000
411.69	0.000
411.92	0.000
412.16	0.000
412.39	0.000
412.62	0.000
412.85	2.070
413.09	0.000
413.32	0.000
413.55	1.946
413.78	0.000
414.02	2.115
414.25	0.000
414.48	1.852
414.71	0.000
414.95	0.000
415.18	0.000
415.41	0.000
415.64	0.000
415.88	0.000
416.11	0.000
416.34	0.000
416.57	0.000
416.80	0.000
417.04	0.000
417.27	0.000
417.50	0.000
417.73	0.000
417.97	0.000
418.20	0.000
418.43	0.000
418.66	0.000
418.90	0.000
419.13	0.000
419.36	0.000
419.59	0.000
419.82	0.000
420.06	3.194
420.29	0.000
420.52	0.000
420.75	0.000
420.98	0.000
421.22	0.000
421.45	1.721
421.68	0.000
421.91	0.000
422.15	2.290
422.38	0.000
422.61	0.000
422.84	0.000
423.07	0.000
423.31	0.000
423.54	0.000
423.77	0.000
424.00	0.000
424.23	0.000
424.46	0.000
424.70	0.000
424.93	0.000
425.16	0.000
425.39	0.000
425.62	0.000
425.86	0.000
426.09	0.000
426.32	0.000
426.55	0.000
426.78	0.000
427.01	0.000
427.25	0.000
427.48	0.000
427.71	2.656
427.94	0.000
428.17	2.178
428.40	2.788
428.64	0.000
428.87	2.156
429.10	0.000
429.33	0.000
429.56	1.962
429.79	0.000
430.03	2.908
430.26	0.000
430.49	0.000
430.72	0.000
430.95	2.941
431.18	0.000
431.42	0.000
431.65	0.000
431.88	0.000
432.11	0.000
432.34	3.128
432.57	0.000
432.80	3.451
433.04	2.305
433.27	1.871
433.50	2.623
433.73	0.000
433.96	0.000
434.19	0.000
434.42	0.000
434.65	0.000
434.89	0.000
435.12	0.000
435.35	0.000
435.58	2.268
435.81	0.000
436.04	0.000
436.27	0.000
436.50	3.232
436.74	0.000
436.97	0.000
437.20	0.000
437.43	0.000
437.66	0.000
437.89	0.000
438.12	0.000
438.35	0.000
438.58	0.000
438.82	0.000
439.05	0.000
439.28	0.000
439.51	0.000
439.74	0.000
439.97	0.000
440.20	2.679
440.43	0.000
440.66	0.000
440.89	0.000
441.12	0.000
441.36	2.393
441.59	0.000
441.82	0.000
442.05	0.000
442.28	2.712
442.51	3.182
442.74	2.477
442.97	0.000
443.20	0.000
443.43	0.000
443.66	0.000
443.89	0.000
444.13	2.321
444.36	2.197
444.59	2.071
444.82	0.000
445.05	0.000
445.28	2.729
445.51	1.890
445.74	0.000
445.97	0.000
446.20	0.000
446.43	2.350
446.66	2.271
446.89	0.000
447.12	2.347
447.35	2.253
447.58	2.207
447.81	0.000
448.05	0.000
448.28	2.910
448.51	0.000
448.74	2.870
448.97	0.000
449.20	2.792
449.43	3.774
449.66	2.734
449.89	1.979
450.12	1.999
450.35	0.000
450.58	0.000
450.81	0.000
451.04	2.193
451.27	2.221
451.50	2.267
451.73	2.140
451.96	0.000
452.19	2.277
452.42	0.000
452.65	2.131
452.88	1.933
453.11	2.180
453.34	0.000
453.57	2.458
453.80	2.303
454.03	3.556
454.26	0.000
454.49	2.259
454.72	2.319
454.95	2.474
455.18	2.001
455.41	2.188
455.64	2.254
455.87	2.194
456.10	2.499
456.33	2.259
456.56	2.171
456.79	2.228
457.02	2.335
457.25	2.056
457.48	2.454
457.71	2.055
457.94	2.030
458.17	1.953
458.40	2.314
458.63	2.534
458.86	2.504
459.09	2.541
459.32	2.571
459.55	2.088
459.78	2.017
460.01	1.978
460.24	2.359
460.47	2.469
460.70	2.130
460.93	2.003
461.16	2.059
461.39	2.136
461.62	2.155
461.85	2.205
462.08	2.074
462.31	2.110
462.54	1.989
462.77	2.101
463.00	1.915
463.22	2.123
463.45	2.208
463.68	1.921
463.91	2.041
464.14	2.077
464.37	2.705
464.60	2.342
464.83	2.118
465.06	2.082
465.29	2.196
465.52	2.178
465.75	2.185
465.98	1.990
466.21	1.884
466.44	2.053
466.67	2.155
466.90	2.583
467.12	2.200
467.35	2.019
467.58	2.175
467.81	2.049
468.04	2.153
468.27	1.957
468.50	2.162
468.73	2.056
468.96	2.011
469.19	1.987
469.42	2.018
469.65	1.948
469.87	1.901
470.10	1.921
470.33	2.048
470.56	1.920
470.79	1.959
471.02	1.878
471.25	1.873
471.48	1.974
471.71	1.975
471.94	1.991
472.17	2.033
472.39	1.955
472.62	1.891
472.85	1.862
473.08	1.931
473.31	1.947
473.54	1.983
473.77	2.047
474.00	1.905
474.23	1.879
474.45	1.912
474.68	1.905
474.91	1.935
475.14	1.952
475.37	2.024
475.60	1.985
475.83	1.950
476.06	1.960
476.28	1.866
476.51	1.859
476.74	1.874
476.97	1.958
477.20	1.838
477.43	1.853
477.66	1.827
477.88	1.878
478.11	1.893
478.34	1.868
478.57	1.911
478.80	1.977
479.03	1.925
479.26	1.950
479.48	1.873
479.71	1.862
479.94	1.887
480.17	1.833
480.40	1.857
480.63	1.827
480.86	1.881
481.08	1.874
481.31	1.868
481.54	1.856
481.77	1.873
482.00	1.917
482.23	1.859
482.45	1.841
482.68	1.855
482.91	1.828
483.14	1.793
483.37	1.835
483.60	1.823
483.82	1.852
484.05	1.833
484.28	1.778
484.51	1.783
484.74	1.807
484.96	1.820
485.19	1.844
485.42	1.860
485.65	1.827
485.88	1.870
486.10	1.833
486.33	1.810
486.56	1.828
486.79	1.857
487.02	1.854
487.25	1.858
487.47	1.827
487.70	1.865
487.93	1.872
488.16	1.884
488.39	1.815
488.61	1.800
488.84	1.838
489.07	1.842
489.30	1.778
489.52	1.777
489.75	1.815
489.98	1.791
490.21	1.828
490.44	1.784
490.66	1.831
490.89	1.794
491.12	1.800
491.35	1.791
491.57	1.795
491.80	1.798
492.03	1.823
492.26	1.824
492.49	1.775
492.71	1.758
492.94	1.787
493.17	1.802
493.40	1.772
493.62	1.796
493.85	1.767
494.08	1.807
494.31	1.788
494.53	1.802
494.76	1.797
494.99	1.770
495.22	1.778
495.44	1.802
495.67	1.777
495.90	1.813
496.13	1.795
496.35	1.803
496.58	1.792
496.81	1.773
497.04	1.784
497.26	1.769
497.49	1.794
497.72	1.808
497.95	1.795
498.17	1.759
498.40	1.737
498.63	1.767
498.85	1.805
499.08	1.790
499.31	1.762
499.54	1.758
499.76	1.755
499.99	1.763
500.22	1.756
500.44	1.728
500.67	1.778
500.90	1.762
501.13	1.759
501.35	1.757
501.58	1.768
501.81	1.781
502.03	1.749
502.26	1.728
502.49	1.772
502.72	1.754
502.94	1.788
503.17	1.766
503.40	1.753
503.62	1.735
503.85	1.753
504.08	1.767
504.30	1.746
504.53	1.734
504.76	1.705
504.98	1.755
505.21	1.758
505.44	1.748
505.67	1.714
505.89	1.702
506.12	1.746
506.35	1.732
506.57	1.756
506.80	1.770
507.03	1.745
507.25	1.745
507.48	1.754
507.71	1.738
507.93	1.740
508.16	1.773
508.39	1.756
508.61	1.727
508.84	1.711
509.07	1.734
509.29	1.739
509.52	1.735
509.75	1.731
509.97	1.758
510.20	1.747
510.43	1.734
510.65	1.760
510.88	1.723
511.10	1.726
511.33	1.718
511.56	1.726
511.78	1.719
512.01	1.729
512.24	1.726
512.46	1.720
512.69	1.730
512.92	1.737
513.14	1.746
513.37	1.723
513.59	1.744
513.82	1.724
514.05	1.705
514.27	1.705
514.50	1.735
514.73	1.719
514.95	1.713
515.18	1.735
515.40	1.722
515.63	1.725
515.86	1.716
516.08	1.735
516.31	1.717
516.54	1.711
516.76	1.741
516.99	1.745
517.21	1.707
517.44	1.697
517.67	1.713
517.89	1.688
518.12	1.706
518.34	1.705
518.57	1.718
518.80	1.704
519.02	1.697
519.25	1.703
519.47	1.700
519.70	1.708
519.93	1.703
520.15	1.719
520.38	1.710
520.60	1.724
520.83	1.714
521.05	1.693
521.28	1.698
521.51	1.711
521.73	1.693
521.96	1.691
522.18	1.686
522.41	1.704
522.63	1.690
522.86	1.668
523.09	1.684
523.31	1.679
523.54	1.687
523.76	1.687
523.99	1.689
524.21	1.699
524.44	1.685
524.67	1.708
524.89	1.699
525.12	1.693
525.34	1.676
525.57	1.673
525.79	1.671
526.02	1.684
526.24	1.678
526.47	1.682
526.69	1.677
526.92	1.685
527.15	1.680
527.37	1.680
527.60	1.687
527.82	1.694
528.05	1.688
528.27	1.673
528.50	1.672
528.72	1.676
528.95	1.668
529.17	1.676
529.40	1.674
529.62	1.657
529.85	1.642
530.07	1.664
530.30	1.669
530.52	1.678
530.75	1.673
530.98	1.677
531.20	1.671
531.43	1.676
531.65	1.678
531.88	1.678
532.10	1.672
532.33	1.659
532.55	1.673
532.78	1.678
533.00	1.668
533.23	1.649
533.45	1.658
533.68	1.648
533.90	1.664
534.13	1.651
534.35	1.660
534.58	1.664
534.80	1.649
535.03	1.670
535.25	1.677
535.47	1.668
535.70	1.678
535.92	1.667
536.15	1.670
536.37	1.668
536.60	1.669
536.82	1.660
537.05	1.668
537.27	1.664
537.50	1.655
537.72	1.668
537.95	1.655
538.17	1.645
538.40	1.655
538.62	1.669
538.85	1.647
539.07	1.670
539.29	1.652
539.52	1.643
539.74	1.637
539.97	1.655
540.19	1.648
540.42	1.645
540.64	1.651
540.87	1.655
541.09	1.645
541.32	1.654
541.54	1.661
541.76	1.658
541.99	1.647
542.21	1.644
542.44	1.646
542.66	1.647
542.89	1.643
543.11	1.636
543.33	1.640
543.56	1.628
543.78	1.649
544.01	1.648
544.23	1.653
544.46	1.668
544.68	1.658
544.90	1.647
545.13	1.640
545.35	1.634
545.58	1.638
545.80	1.644
546.03	1.640
546.25	1.639
546.47	1.653
546.70	1.649
546.92	1.639
547.15	1.652
547.37	1.649
547.59	1.647
547.82	1.642
548.04	1.654
548.27	1.636
548.49	1.628
548.71	1.635
548.94	1.631
549.16	1.629
549.39	1.619
549.61	1.625
549.83	1.627
550.06	1.621
550.28	1.623
550.50	1.620
550.73	1.627
550.95	1.629
551.18	1.629
551.40	1.635
551.62	1.634
551.85	1.636
552.07	1.631
552.29	1.630
552.52	1.624
552.74	1.619
552.97	1.624
553.19	1.615
553.41	1.611
553.64	1.615
553.86	1.620
554.08	1.625
554.31	1.619
554.53	1.616
554.75	1.621
554.98	1.618
555.20	1.614
555.42	1.603
555.65	1.602
555.87	1.601
556.10	1.604
556.32	1.618
556.54	1.615
556.77	1.612
556.99	1.615
557.21	1.615
557.44	1.614
557.66	1.612
557.88	1.604
558.11	1.604
558.33	1.598
558.55	1.600
558.78	1.596
559.00	1.593
559.22	1.599
559.44	1.595
559.67	1.593
559.89	1.593
560.11	1.598
560.34	1.596
560.56	1.595
560.78	1.595
561.01	1.594
561.23	1.592
561.45	1.604
561.68	1.611
561.90	1.600
562.12	1.593
562.35	1.596
562.57	1.593
562.79	1.587
563.01	1.583
563.24	1.585
563.46	1.575
563.68	1.572
563.91	1.576
564.13	1.578
564.35	1.582
564.57	1.582
564.80	1.586
565.02	1.580
565.24	1.574
565.47	1.568
565.69	1.565
565.91	1.560
566.13	1.553
566.36	1.557
566.58	1.555
566.80	1.544
567.02	1.540
567.25	1.536
567.47	1.542
567.69	1.534
567.92	1.545
568.14	1.535
568.36	1.531
568.58	1.540
568.81	1.529
569.03	1.524
569.25	1.518
569.47	1.513
569.70	1.505
569.92	1.500
570.14	1.488
570.36	1.482
570.59	1.479
570.81	1.478
571.03	1.475
571.25	1.466
571.47	1.464
571.70	1.460
571.92	1.446
572.14	1.454
572.36	1.451
572.59	1.442
572.81	1.431
573.03	1.420
573.25	1.409
573.48	1.402
573.70	1.396
573.92	1.399
574.14	1.388
574.36	1.384
574.59	1.370
574.81	1.361
575.03	1.349
575.25	1.336
575.47	1.314
575.70	1.304
575.92	1.289
576.14	1.272
576.36	1.257
576.59	1.243
576.81	1.219
577.03	1.196
577.25	1.180
577.47	1.164
577.69	1.157
577.92	1.149
578.14	1.140
578.36	1.122
578.58	1.092
578.80	1.051
579.03	1.013
579.25	0.976
579.47	0.949
579.69	0.925
579.91	0.906
580.14	0.891
580.36	0.878
580.58	0.873
580.80	0.878
581.02	0.898
581.24	0.926
581.47	0.956
581.69	0.982
581.91	0.995
582.13	0.988
582.35	0.961
582.57	0.931
582.79	0.898
583.02	0.864
583.24	0.834
583.46	0.810
583.68	0.789
583.90	0.772
584.12	0.757
584.35	0.744
584.57	0.730
584.79	0.718
585.01	0.706
585.23	0.698
585.45	0.684
585.67	0.672
585.90	0.661
586.12	0.649
586.34	0.642
586.56	0.633
586.78	0.628
587.00	0.622
587.22	0.616
587.44	0.611
587.67	0.602
587.89	0.596
588.11	0.587
588.33	0.578
588.55	0.573
588.77	0.569
588.99	0.566
589.21	0.566
589.43	0.566
589.66	0.562
589.88	0.555
590.10	0.550
590.32	0.544
590.54	0.537
590.76	0.533
590.98	0.527
591.20	0.525
591.42	0.522
591.64	0.519
591.87	0.515
592.09	0.514
592.31	0.514
592.53	0.513
592.75	0.512
592.97	0.510
593.19	0.506
593.41	0.503
593.63	0.501
593.85	0.499
594.07	0.498
594.29	0.498
594.52	0.495
594.74	0.492
594.96	0.489
595.18	0.488
595.40	0.487
595.62	0.483
595.84	0.479
596.06	0.475
596.28	0.473
596.50	0.471
596.72	0.469
596.94	0.466
597.16	0.462
597.38	0.459
597.60	0.456
597.82	0.451
598.05	0.446
598.27	0.444
598.49	0.441
598.71	0.440
598.93	0.437
599.15	0.437
599.37	0.438
599.59	0.438
599.81	0.436
600.03	0.431
600.25	0.430
600.47	0.427
600.69	0.424
600.91	0.422
601.13	0.416
601.35	0.413
601.57	0.411
601.79	0.409
602.01	0.407
602.23	0.404
602.45	0.401
602.67	0.398
602.89	0.396
603.11	0.390
603.33	0.387
603.55	0.386
603.77	0.384
603.99	0.382
604.21	0.379
604.43	0.378
604.65	0.376
604.87	0.373
605.09	0.367
605.31	0.360
605.53	0.356
605.75	0.354
605.97	0.352
606.19	0.351
606.41	0.347
606.63	0.343
606.85	0.337
607.07	0.334
607.29	0.331
607.51	0.330
607.73	0.327
607.95	0.321
608.17	0.320
608.39	0.316
608.61	0.309
608.83	0.304
609.05	0.299
609.27	0.295
609.49	0.288
609.71	0.285
609.93	0.281
610.15	0.277
610.37	0.273
610.59	0.268
610.81	0.260
611.03	0.252
611.24	0.244
611.46	0.236
611.68	0.231
611.90	0.226
612.12	0.220
612.34	0.219
612.56	0.218
612.78	0.218
613.00	0.220
613.22	0.221
613.44	0.220
613.66	0.220
613.88	0.219
614.10	0.218
614.32	0.218
614.54	0.218
614.75	0.219
614.97	0.219
615.19	0.218
615.41	0.217
615.63	0.216
615.85	0.216
616.07	0.214
616.29	0.211
616.51	0.209
616.73	0.206
616.95	0.204
617.17	0.205
617.38	0.204
617.60	0.206
617.82	0.208
618.04	0.208
618.26	0.205
618.48	0.202
618.70	0.196
618.92	0.193
619.14	0.193
619.36	0.193
619.57	0.192
619.79	0.192
620.01	0.193
620.23	0.194
620.45	0.193
620.67	0.193
620.89	0.192
621.11	0.193
621.33	0.194
621.54	0.196
621.76	0.196
621.98	0.196
622.20	0.193
622.42	0.192
622.64	0.190
622.86	0.191
623.07	0.193
623.29	0.194
623.51	0.195
623.73	0.193
623.95	0.191
624.17	0.188
624.39	0.188
624.60	0.188
624.82	0.187
625.04	0.187
625.26	0.186
625.48	0.185
625.70	0.184
625.92	0.183
626.13	0.181
626.35	0.180
626.57	0.183
626.79	0.185
627.01	0.185
627.23	0.185
627.44	0.185
627.66	0.185
627.88	0.186
628.10	0.186
628.32	0.185
628.54	0.183
628.75	0.185
628.97	0.189
629.19	0.189
629.41	0.187
629.63	0.187
629.84	0.187
630.06	0.185
630.28	0.182
630.50	0.182
630.72	0.183
630.94	0.185
631.15	0.183
631.37	0.182
631.59	0.181
631.81	0.180
632.03	0.180
632.24	0.180
632.46	0.179
632.68	0.177
632.90	0.176
633.11	0.180
633.33	0.182
633.55	0.186
633.77	0.189
633.99	0.190
634.20	0.188
634.42	0.184
634.64	0.181
634.86	0.179
635.08	0.180
635.29	0.179
635.51	0.179
635.73	0.181
635.95	0.183
636.16	0.182
636.38	0.183
636.60	0.182
636.82	0.180
637.03	0.179
637.25	0.177
637.47	0.177
637.69	0.181
637.90	0.182
638.12	0.182
638.34	0.181
638.56	0.179
638.77	0.177
638.99	0.173
639.21	0.170
639.43	0.169
639.64	0.171
639.86	0.174
640.08	0.176
640.30	0.177
640.51	0.176
640.73	0.174
640.95	0.174
641.17	0.171
641.38	0.169
641.60	0.170
641.82	0.172
642.03	0.174
642.25	0.176
642.47	0.177
642.69	0.178
642.90	0.178
643.12	0.177
643.34	0.175
643.55	0.172
643.77	0.172
643.99	0.176
644.21	0.178
644.42	0.182
644.64	0.184
644.86	0.185
645.07	0.186
645.29	0.182
645.51	0.179
645.73	0.176
645.94	0.175
646.16	0.175
646.38	0.173
646.59	0.170
646.81	0.169
647.03	0.169
647.24	0.170
647.46	0.172
647.68	0.171
647.89	0.169
648.11	0.168
648.33	0.167
648.54	0.167
648.76	0.170
648.98	0.172
649.19	0.172
649.41	0.171
649.63	0.172
649.84	0.172
650.06	0.171
650.28	0.170
650.49	0.169
650.71	0.169
650.93	0.170
651.14	0.169
651.36	0.170
651.58	0.172
651.79	0.172
652.01	0.171
652.23	0.171
652.44	0.171
652.66	0.173
652.88	0.171
653.09	0.170
653.31	0.169
653.52	0.170
653.74	0.168
653.96	0.167
654.17	0.166
654.39	0.168
654.61	0.167
654.82	0.168
655.04	0.167
655.25	0.167
655.47	0.165
655.69	0.164
655.90	0.165
656.12	0.165
656.34	0.166
656.55	0.169
656.77	0.170
656.98	0.170
657.20	0.171
657.42	0.170
657.63	0.169
657.85	0.164
658.06	0.161
658.28	0.159
658.50	0.159
658.71	0.160
658.93	0.161
659.14	0.161
659.36	0.163
659.58	0.166
659.79	0.166
660.01	0.167
660.22	0.167
660.44	0.167
660.65	0.165
660.87	0.164
661.09	0.166
661.30	0.168
661.52	0.171
661.73	0.172
661.95	0.174
662.16	0.173
662.38	0.170
662.60	0.169
662.81	0.168
663.03	0.167
663.24	0.164
663.46	0.163
663.67	0.162
663.89	0.161
664.11	0.162
664.32	0.162
664.54	0.160
664.75	0.160
664.97	0.161
665.18	0.163
665.40	0.165
665.61	0.166
665.83	0.164
666.04	0.162
666.26	0.160
666.48	0.161
666.69	0.160
666.91	0.161
667.12	0.162
667.34	0.162
667.55	0.162
667.77	0.161
667.98	0.163
668.20	0.163
668.41	0.163
668.63	0.163
668.84	0.164
669.06	0.165
669.27	0.166
669.49	0.164
669.70	0.163
669.92	0.163
670.13	0.164
670.35	0.166
670.56	0.168
670.78	0.167
670.99	0.165
671.21	0.165
671.42	0.166
671.64	0.167
671.85	0.167
672.07	0.167
672.28	0.166
672.50	0.166
672.71	0.166
672.93	0.165
673.14	0.163
673.36	0.161
673.57	0.160
673.79	0.159
674.00	0.160
674.22	0.158
674.43	0.159
674.65	0.155
674.86	0.152
675.08	0.151
675.29	0.153
675.50	0.156
675.72	0.159
675.93	0.160
676.15	0.161
676.36	0.161
676.58	0.163
676.79	0.163
677.01	0.163
677.22	0.163
677.44	0.160
677.65	0.157
677.86	0.156
678.08	0.155
678.29	0.156
678.51	0.156
678.72	0.157
678.94	0.157
679.15	0.160
679.37	0.163
679.58	0.163
679.79	0.159
680.01	0.157
680.22	0.157
680.44	0.155
680.65	0.154
680.87	0.155
681.08	0.155
681.29	0.154
681.51	0.155
681.72	0.159
681.94	0.162
682.15	0.164
682.36	0.164
682.58	0.162
682.79	0.161
683.01	0.161
683.22	0.159
683.43	0.158
683.65	0.157
683.86	0.156
684.08	0.156
684.29	0.155
684.50	0.156
684.72	0.156
684.93	0.155
685.15	0.156
685.36	0.157
685.57	0.158
685.79	0.159
686.00	0.160
686.22	0.159
686.43	0.158
686.64	0.157
686.86	0.155
687.07	0.153
687.28	0.151
687.50	0.151
687.71	0.149
687.93	0.147
688.14	0.147
688.35	0.147
688.57	0.149
688.78	0.152
688.99	0.154
689.21	0.154
689.42	0.154
689.63	0.158
689.85	0.159
690.06	0.158
690.27	0.156
690.49	0.155
690.70	0.154
690.91	0.154
691.13	0.152
691.34	0.150
691.56	0.149
691.77	0.148
691.98	0.148
692.20	0.148
692.41	0.149
692.62	0.152
692.84	0.152
693.05	0.149
693.26	0.147
693.47	0.147
693.69	0.148
693.90	0.149
694.11	0.152
694.33	0.153
694.54	0.154
694.75	0.154
694.97	0.153
695.18	0.151
695.39	0.152
695.61	0.153
695.82	0.153
696.03	0.153
696.25	0.152
696.46	0.151
696.67	0.150
696.88	0.151
697.10	0.151
697.31	0.151
697.52	0.151
697.74	0.151
697.95	0.150
698.16	0.151
698.37	0.153
698.59	0.154
698.80	0.153
699.01	0.150
699.23	0.148
699.44	0.150
699.65	0.150
699.86	0.151
700.08	0.148
700.29	0.150
700.50	0.153
700.71	0.153
700.93	0.151
701.14	0.150
701.35	0.148
701.56	0.149
701.78	0.149
701.99	0.149
702.20	0.149
702.41	0.148
702.63	0.148
702.84	0.149
703.05	0.148
703.26	0.146
703.48	0.146
703.69	0.145
703.90	0.146
704.11	0.148
704.33	0.150
704.54	0.153
704.75	0.152
704.96	0.153
705.18	0.153
705.39	0.153
705.60	0.151
705.81	0.151
706.02	0.150
706.24	0.147
706.45	0.145
706.66	0.144
706.87	0.143
707.09	0.142
707.30	0.141
707.51	0.140
707.72	0.139
707.93	0.137
708.15	0.140
708.36	0.141
708.57	0.143
708.78	0.142
708.99	0.143
709.21	0.145
709.42	0.145
709.63	0.147
709.84	0.147
710.05	0.148
710.27	0.148
710.48	0.149
710.69	0.147
710.90	0.148
711.11	0.147
711.32	0.150
711.54	0.151
711.75	0.150
711.96	0.150
712.17	0.150
712.38	0.152
712.59	0.150
712.81	0.150
713.02	0.149
713.23	0.149
713.44	0.147
713.65	0.143
713.86	0.142
714.08	0.143
714.29	0.144
714.50	0.144
714.71	0.142
714.92	0.140
715.13	0.141
715.34	0.145
715.56	0.148
715.77	0.151
715.98	0.150
716.19	0.149
716.40	0.144
716.61	0.141
716.82	0.139
717.04	0.139
717.25	0.140
717.46	0.139
717.67	0.137
717.88	0.135
718.09	0.135
718.30	0.138
718.51	0.141
718.73	0.143
718.94	0.146
719.15	0.145
719.36	0.145
719.57	0.143
719.78	0.142
719.99	0.141
720.20	0.137
720.41	0.135
720.63	0.136
720.84	0.139
721.05	0.139
721.26	0.140
721.47	0.140
721.68	0.140
721.89	0.140
722.10	0.139
722.31	0.140
722.52	0.140
722.73	0.141
722.95	0.142
723.16	0.144
723.37	0.144
723.58	0.142
723.79	0.142
724.00	0.141
724.21	0.142
724.42	0.143
724.63	0.143
724.84	0.143
725.05	0.141
725.26	0.136
725.47	0.132
725.68	0.130
725.90	0.129
726.11	0.132
726.32	0.135
726.53	0.136
726.74	0.135
726.95	0.135
727.16	0.134
727.37	0.135
727.58	0.135
727.79	0.138
728.00	0.136
728.21	0.135
728.42	0.133
728.63	0.133
728.84	0.131
729.05	0.131
729.26	0.132
729.47	0.136
729.68	0.138
729.89	0.138
730.10	0.139
730.31	0.140
730.52	0.139
730.73	0.138
730.94	0.140
731.15	0.141
731.36	0.142
731.57	0.143
731.78	0.140
731.99	0.137
732.20	0.134
732.41	0.134
732.62	0.136
732.83	0.138
733.04	0.140
733.25	0.138
733.46	0.136
733.67	0.133
733.88	0.133
734.09	0.132
734.30	0.135
734.51	0.137
734.72	0.137
734.93	0.138
735.14	0.140
735.35	0.142
735.56	0.142
735.77	0.142
735.98	0.141
736.19	0.143
736.40	0.142
736.61	0.140
736.82	0.139
737.03	0.139
737.24	0.139
737.45	0.139
737.66	0.138
737.87	0.139
738.08	0.142
738.29	0.139
738.50	0.138
738.71	0.137
738.92	0.137
739.13	0.138
739.34	0.138
739.55	0.138
739.75	0.138
739.96	0.139
740.17	0.141
740.38	0.143
740.59	0.142
740.80	0.142
741.01	0.143
741.22	0.142
741.43	0.142
741.64	0.141
741.85	0.140
742.06	0.139
742.27	0.136
742.48	0.136
742.68	0.133
742.89	0.134
743.10	0.136
743.31	0.136
743.52	0.136
743.73	0.139
743.94	0.140
744.15	0.140
744.36	0.138
744.57	0.136
744.78	0.135
744.98	0.134
745.19	0.133
745.40	0.133
745.61	0.131
745.82	0.132
746.03	0.133
746.24	0.132
746.45	0.133
746.66	0.136
746.86	0.137
747.07	0.137
747.28	0.138
747.49	0.137
747.70	0.135
747.91	0.137
748.12	0.136
748.33	0.133
748.53	0.132
748.74	0.129
748.95	0.129
749.16	0.131
749.37	0.132
749.58	0.134
749.79	0.137
749.99	0.138
750.20	0.140
750.41	0.141
750.62	0.141
750.83	0.141
751.04	0.143
751.25	0.147
751.45	0.147
751.66	0.147
751.87	0.144
752.08	0.143
752.29	0.141
752.50	0.141
752.70	0.139
752.91	0.138
753.12	0.136
753.33	0.136
753.54	0.138
753.75	0.139
753.95	0.137
754.16	0.135
754.37	0.134
754.58	0.132
754.79	0.131
754.99	0.130
755.20	0.131
755.41	0.136
755.62	0.132
755.83	0.131
756.04	0.133
756.24	0.134
756.45	0.135
756.66	0.139
756.87	0.142
757.08	0.142
757.28	0.143
757.49	0.139
757.70	0.136
757.91	0.135
758.11	0.131
758.32	0.131
758.53	0.131
758.74	0.131
758.95	0.133
759.15	0.134
759.36	0.136
759.57	0.135
759.78	0.135
759.98	0.133
760.19	0.131
760.40	0.128
760.61	0.128
760.82	0.127
761.02	0.129
761.23	0.129
761.44	0.128
761.65	0.127
761.85	0.129
762.06	0.130
762.27	0.128
762.48	0.126
762.68	0.128
762.89	0.129
763.10	0.131
763.31	0.133
763.51	0.135
763.72	0.135
763.93	0.136
764.13	0.133
764.34	0.130
764.55	0.129
764.76	0.131
764.96	0.132
765.17	0.131
765.38	0.130
765.59	0.130
765.79	0.133
766.00	0.134
766.21	0.135
766.41	0.133
766.62	0.132
766.83	0.133
767.04	0.132
767.24	0.132
767.45	0.130
767.66	0.128
767.86	0.128
768.07	0.129
768.28	0.128
768.48	0.130
768.69	0.130
768.90	0.128
769.11	0.124
769.31	0.122
769.52	0.122
769.73	0.121
769.93	0.122
770.14	0.120
770.35	0.122
770.55	0.126
770.76	0.131
770.97	0.136
771.17	0.137
771.38	0.138
771.59	0.137
771.79	0.138
772.00	0.139
772.21	0.137
772.41	0.134
772.62	0.129
772.83	0.127
773.03	0.126
773.24	0.126
773.45	0.126
773.65	0.126
773.86	0.125
774.07	0.124
774.27	0.126
774.48	0.127
774.69	0.127
774.89	0.126
775.10	0.127
775.30	0.128
775.51	0.127
775.72	0.125
775.92	0.122
776.13	0.121
776.34	0.123
776.54	0.126
776.75	0.132
776.95	0.133
777.16	0.133
777.37	0.134
777.57	0.134
777.78	0.133
777.99	0.133
778.19	0.130
778.40	0.130
778.60	0.130
778.81	0.126
779.02	0.125
779.22	0.126
779.43	0.126
779.63	0.128
779.84	0.127
780.05	0.126
780.25	0.127
780.46	0.126
780.66	0.128
780.87	0.130
781.08	0.130
781.28	0.132
781.49	0.133
781.69	0.132
781.90	0.130
782.10	0.128
782.31	0.127
782.52	0.130
782.72	0.128
782.93	0.127
783.13	0.128
783.34	0.130
783.54	0.129
783.75	0.128
783.96	0.126
784.16	0.127
784.37	0.128
784.57	0.131
784.78	0.134
784.98	0.132
785.19	0.131
785.39	0.127
785.60	0.126
785.80	0.124
786.01	0.124
786.22	0.125
786.42	0.129
786.63	0.131
786.83	0.131
787.04	0.129
787.24	0.129
787.45	0.129
787.65	0.129
787.86	0.128
788.06	0.127
788.27	0.126
788.47	0.125
788.68	0.125
788.88	0.125
789.09	0.125
789.29	0.125
789.50	0.125
789.70	0.126
789.91	0.127
790.11	0.125
790.32	0.124
790.52	0.122
790.73	0.121
790.93	0.120
791.14	0.118
791.34	0.120
791.55	0.123
791.75	0.123
791.96	0.128
792.16	0.131
792.37	0.132
792.57	0.133
792.78	0.133
792.98	0.133
793.19	0.132
793.39	0.130
793.60	0.128
793.80	0.125
794.01	0.125
794.21	0.125
794.42	0.126
794.62	0.126
794.83	0.124
795.03	0.121
795.24	0.120
795.44	0.120
795.64	0.118
795.85	0.117
796.05	0.118
796.26	0.121
796.46	0.123
796.67	0.125
796.87	0.127
797.08	0.130
797.28	0.131
797.48	0.130
797.69	0.131
797.89	0.133
798.10	0.134
798.30	0.130
798.51	0.125
798.71	0.122
798.91	0.122
799.12	0.121
799.32	0.122
799.53	0.124
799.73	0.126
799.94	0.127
800.14	0.128
800.34	0.129
800.55	0.132
800.75	0.133
800.96	0.131
801.16	0.133
801.36	0.131
801.57	0.126
801.77	0.122
801.98	0.120
802.18	0.120
802.38	0.120
802.59	0.122
802.79	0.123
803.00	0.128
803.20	0.129
803.40	0.131
803.61	0.132
803.81	0.131
804.02	0.131
804.22	0.128
804.42	0.127
804.63	0.124
804.83	0.120
805.03	0.124
805.24	0.124
805.44	0.125
805.65	0.123
805.85	0.122
806.05	0.119
806.26	0.118
806.46	0.116
806.66	0.114
806.87	0.111
807.07	0.108
807.27	0.106
807.48	0.106
807.68	0.107
807.88	0.108
808.09	0.108
808.29	0.109
808.49	0.109
808.70	0.109
808.90	0.109
809.10	0.110
809.31	0.110
809.51	0.113
809.71	0.115
809.92	0.119
810.12	0.121
810.32	0.125
810.53	0.125
810.73	0.125
810.93	0.127
811.14	0.126
811.34	0.125
811.54	0.126
811.75	0.123
811.95	0.124
812.15	0.120
812.36	0.119
812.56	0.118
812.76	0.120
812.96	0.122
813.17	0.122
813.37	0.122
813.57	0.119
813.78	0.119
813.98	0.119
814.18	0.118
814.38	0.118
814.59	0.116
814.79	0.114
814.99	0.112
815.20	0.112
815.40	0.111
815.60	0.112
815.80	0.113
816.01	0.114
816.21	0.116
816.41	0.116
816.62	0.119
816.82	0.120
817.02	0.122
817.22	0.123
817.43	0.124
817.63	0.123
817.83	0.123
818.03	0.123
818.24	0.120
818.44	0.119
818.64	0.116
818.84	0.112
819.05	0.111
819.25	0.111
819.45	0.110
819.65	0.112
819.86	0.109
820.06	0.109
820.26	0.109
820.46	0.108
820.66	0.111
820.87	0.112
821.07	0.113
821.27	0.117
821.47	0.117
821.68	0.116
821.88	0.117
822.08	0.117
822.28	0.117
>>>>>End Spectral Data<<<<<
