OOIBase32 Version 2.0.1.4 Data File
++++++++++++++++++++++++++++++++++++
Date: 11-03-2025, 10:23:02
User: Valued Ocean Optics Customer
Spectrometer Serial Number: HR2B216
Spectrometer Channel: Master
Integration Time (msec): 5
Spectra Averaged: 80
Boxcar Smoothing: 0
Correct for Electrical Dark: Disabled
Time Normalized: Disabled
Dual-beam Reference: Disabled
Reference Channel: Master
Temperature: Not acquired
Spectrometer Type: S2000
ADC Type: HR2000
Number of Pixels in File: 2048
Graph Title: 
>>>>>Begin Spectral Data<<<<<
373.12	0.000
373.35	252.459
373.59	295.083
373.82	804.178
374.06	576.668
374.29	-1862.531
374.53	542.425
374.76	-449.997
375.00	413.954
375.23	411.628
375.47	337.313
375.70	1409.122
375.94	791.659
376.17	621.214
376.40	1061.117
376.64	2187.533
376.87	-1029.441
377.11	-1225.017
377.34	-5432.445
377.58	377.084
377.81	558.069
378.05	632.000
378.28	505.715
378.52	814.999
378.75	451.729
378.99	658.614
379.22	-8999.451
379.45	-226.865
379.69	-167.741
379.92	-345.453
380.16	-371.426
380.39	-201.614
380.63	-147.900
380.86	-200.000
381.10	-90.226
381.33	-115.178
381.56	-116.912
381.80	-99.300
382.03	-97.041
382.27	-142.857
382.50	-109.016
382.74	-161.321
382.97	-178.947
383.21	-182.652
383.44	-75.163
383.67	-160.714
383.91	-168.000
384.14	-224.001
384.38	-110.416
384.61	-136.842
384.84	-98.765
385.08	-133.824
385.31	-203.450
385.55	-142.748
385.78	-204.275
386.02	-115.730
386.25	-61.674
386.48	-86.188
386.72	-118.667
386.95	-69.588
387.19	-119.620
387.42	-121.918
387.65	-102.597
387.89	-155.556
388.12	-74.627
388.36	-71.282
388.59	-108.465
388.82	-69.312
389.06	-42.460
389.29	-67.961
389.53	-92.021
389.76	-80.358
389.99	-161.487
390.23	-74.886
390.46	-73.452
390.70	-52.610
390.93	-54.231
391.16	-76.190
391.40	-78.355
391.63	-45.946
391.87	-70.723
392.10	-56.627
392.33	-47.811
392.57	-40.823
392.80	-64.435
393.03	-79.435
393.27	-45.545
393.50	-46.392
393.74	-35.254
393.97	-38.568
394.20	-57.912
394.44	-57.643
394.67	-67.347
394.90	-63.810
395.14	-53.135
395.37	-66.906
395.60	-53.943
395.84	-51.499
396.07	-39.094
396.31	-49.858
396.54	-43.170
396.77	-48.677
397.01	-48.774
397.24	-42.670
397.47	-51.058
397.71	-35.321
397.94	-50.807
398.17	-42.716
398.41	-55.457
398.64	-50.131
398.87	-27.941
399.11	-32.294
399.34	-32.189
399.57	-37.500
399.81	-34.009
400.04	-31.891
400.27	-32.043
400.51	-32.265
400.74	-32.377
400.97	-32.677
401.21	-31.641
401.44	-24.855
401.67	-31.683
401.91	-23.551
402.14	-28.016
402.37	-29.511
402.61	-26.993
402.84	-22.628
403.07	-9.948
403.31	-16.252
403.54	-22.020
403.77	-30.994
404.00	-27.509
404.24	-16.473
404.47	-27.586
404.70	-29.511
404.94	-27.055
405.17	-14.286
405.40	-17.647
405.64	-22.756
405.87	-25.478
406.10	-25.316
406.34	-22.404
406.57	-19.077
406.80	-26.457
407.03	-19.827
407.27	-32.813
407.50	-18.338
407.73	-20.304
407.97	-22.686
408.20	-22.485
408.43	-15.513
408.66	-17.109
408.90	-20.220
409.13	-15.980
409.36	-15.889
409.60	-22.568
409.83	-22.446
410.06	-12.956
410.29	-13.155
410.53	-14.581
410.76	-19.431
410.99	-17.045
411.22	-14.629
411.46	-17.584
411.69	-15.254
411.92	-8.946
412.16	-19.472
412.39	-18.829
412.62	-17.808
412.85	-13.573
413.09	-8.192
413.32	-14.555
413.55	-11.055
413.78	-10.470
414.02	-12.759
414.25	-15.028
414.48	-11.892
414.71	-14.315
414.95	-9.847
415.18	-13.442
415.41	-11.786
415.64	-12.948
415.88	-11.389
416.11	-5.068
416.34	-7.968
416.57	-13.475
416.80	-8.908
417.04	-15.098
417.27	-13.820
417.50	-9.590
417.73	-13.664
417.97	-9.936
418.20	-5.702
418.43	-6.292
418.66	-8.772
418.90	-10.171
419.13	-7.521
419.36	-6.291
419.59	-6.433
419.82	-3.684
420.06	0.275
420.29	-6.873
420.52	-3.668
420.75	-8.179
420.98	-8.098
421.22	-9.061
421.45	-7.138
421.68	-8.769
421.91	-6.638
422.15	-7.607
422.38	-9.074
422.61	-6.524
422.84	-3.333
423.07	-5.352
423.31	-7.600
423.54	-3.980
423.77	-3.794
424.00	-6.283
424.23	-6.130
424.46	-4.550
424.70	-5.435
424.93	-4.744
425.16	-4.948
425.39	-7.587
425.62	-1.091
425.86	-4.024
426.09	-8.507
426.32	-3.116
426.55	-4.102
426.78	-4.167
427.01	-5.914
427.25	-2.151
427.48	-3.515
427.71	-5.127
427.94	-4.646
428.17	-2.960
428.40	-1.817
428.64	-2.422
428.87	-3.615
429.10	-3.395
429.33	-3.389
429.56	-2.128
429.79	-1.882
430.03	-3.778
430.26	-3.591
430.49	-1.572
430.72	-1.901
430.95	-2.322
431.18	-3.514
431.42	-2.494
431.65	-3.766
431.88	-0.648
432.11	-2.140
432.34	-2.933
432.57	-1.898
432.80	-0.217
433.04	-1.085
433.27	-0.561
433.50	-1.044
433.73	-0.170
433.96	-4.017
434.19	-1.081
434.42	-0.096
434.65	-1.615
434.89	-1.661
435.12	0.495
435.35	0.872
435.58	-1.089
435.81	-0.251
436.04	-1.463
436.27	1.122
436.50	-0.542
436.74	-2.366
436.97	-0.483
437.20	-1.083
437.43	-1.590
437.66	-0.923
437.89	-0.246
438.12	0.691
438.35	-1.039
438.58	-0.951
438.82	-0.421
439.05	0.501
439.28	-0.894
439.51	-1.126
439.74	-0.205
439.97	1.110
440.20	2.134
440.43	-1.486
440.66	1.125
440.89	0.213
441.12	1.676
441.36	0.923
441.59	0.283
441.82	0.552
442.05	0.756
442.28	0.951
442.51	0.134
442.74	0.491
442.97	1.605
443.20	0.494
443.43	-0.905
443.66	1.488
443.89	-0.059
444.13	0.085
444.36	0.484
444.59	0.569
444.82	0.746
445.05	0.316
445.28	0.662
445.51	1.345
445.74	1.921
445.97	1.559
446.20	2.219
446.43	1.661
446.66	1.557
446.89	1.988
447.12	1.185
447.35	1.532
447.58	2.353
447.81	2.199
448.05	1.901
448.28	1.932
448.51	2.239
448.74	2.687
448.97	2.577
449.20	2.293
449.43	1.673
449.66	1.230
449.89	1.955
450.12	1.769
450.35	1.427
450.58	1.977
450.81	1.373
451.04	2.667
451.27	1.949
451.50	1.635
451.73	1.946
451.96	1.571
452.19	1.962
452.42	1.680
452.65	2.307
452.88	2.012
453.11	2.866
453.34	2.837
453.57	2.844
453.80	2.096
454.03	2.502
454.26	3.277
454.49	2.016
454.72	2.095
454.95	2.389
455.18	2.192
455.41	2.689
455.64	2.247
455.87	1.953
456.10	3.142
456.33	2.708
456.56	3.732
456.79	2.890
457.02	2.207
457.25	3.333
457.48	3.191
457.71	3.293
457.94	2.767
458.17	3.177
458.40	3.128
458.63	2.367
458.86	3.166
459.09	2.934
459.32	2.585
459.55	3.041
459.78	3.028
460.01	3.316
460.24	3.166
460.47	2.965
460.70	2.807
460.93	2.516
461.16	3.735
461.39	3.587
461.62	3.519
461.85	3.329
462.08	3.820
462.31	3.664
462.54	3.410
462.77	2.929
463.00	3.051
463.22	3.431
463.45	3.476
463.68	3.692
463.91	3.022
464.14	3.229
464.37	2.872
464.60	2.911
464.83	3.458
465.06	3.656
465.29	3.495
465.52	3.608
465.75	3.359
465.98	3.552
466.21	3.890
466.44	3.746
466.67	3.925
466.90	3.498
467.12	3.640
467.35	4.291
467.58	3.809
467.81	3.261
468.04	3.613
468.27	3.731
468.50	3.640
468.73	3.427
468.96	4.007
469.19	3.843
469.42	4.172
469.65	3.314
469.87	3.873
470.10	3.487
470.33	4.004
470.56	4.300
470.79	3.517
471.02	4.133
471.25	4.248
471.48	3.988
471.71	4.131
471.94	4.130
472.17	3.935
472.39	3.711
472.62	3.766
472.85	3.958
473.08	3.930
473.31	3.973
473.54	4.129
473.77	4.077
474.00	4.232
474.23	4.510
474.45	4.340
474.68	3.924
474.91	4.025
475.14	4.073
475.37	4.038
475.60	4.251
475.83	4.413
476.06	4.227
476.28	3.837
476.51	4.061
476.74	4.196
476.97	4.070
477.20	4.282
477.43	4.232
477.66	4.334
477.88	3.982
478.11	4.361
478.34	4.398
478.57	4.281
478.80	4.371
479.03	4.630
479.26	4.538
479.48	4.299
479.71	4.442
479.94	4.409
480.17	4.340
480.40	4.386
480.63	4.390
480.86	4.366
481.08	4.551
481.31	4.411
481.54	4.553
481.77	4.605
482.00	4.427
482.23	4.537
482.45	4.177
482.68	4.539
482.91	4.588
483.14	4.480
483.37	4.612
483.60	4.587
483.82	4.614
484.05	4.495
484.28	4.605
484.51	4.535
484.74	4.586
484.96	4.514
485.19	4.538
485.42	4.436
485.65	4.693
485.88	4.532
486.10	4.467
486.33	4.394
486.56	4.501
486.79	4.781
487.02	4.852
487.25	4.770
487.47	4.474
487.70	4.532
487.93	4.531
488.16	4.459
488.39	4.548
488.61	4.486
488.84	4.454
489.07	4.657
489.30	4.521
489.52	4.798
489.75	4.695
489.98	4.436
490.21	4.567
490.44	4.558
490.66	4.577
490.89	4.795
491.12	4.913
491.35	4.684
491.57	4.618
491.80	4.590
492.03	4.486
492.26	4.614
492.49	4.676
492.71	4.645
492.94	4.754
493.17	4.789
493.40	4.741
493.62	4.662
493.85	4.820
494.08	4.758
494.31	4.745
494.53	4.754
494.76	4.794
494.99	4.623
495.22	4.698
495.44	4.918
495.67	4.796
495.90	4.806
496.13	4.695
496.35	4.706
496.58	4.717
496.81	4.677
497.04	4.518
497.26	4.613
497.49	4.584
497.72	4.600
497.95	4.669
498.17	4.706
498.40	4.670
498.63	4.849
498.85	4.792
499.08	4.672
499.31	4.716
499.54	4.709
499.76	4.755
499.99	4.749
500.22	4.802
500.44	4.729
500.67	4.878
500.90	4.946
501.13	4.803
501.35	4.763
501.58	4.749
501.81	4.852
502.03	4.717
502.26	4.653
502.49	4.497
502.72	4.562
502.94	4.859
503.17	4.858
503.40	4.799
503.62	4.758
503.85	4.735
504.08	4.704
504.30	4.824
504.53	4.741
504.76	4.864
504.98	4.853
505.21	4.859
505.44	4.952
505.67	5.084
505.89	4.938
506.12	5.010
506.35	4.991
506.57	5.140
506.80	5.044
507.03	5.024
507.25	5.019
507.48	4.878
507.71	4.915
507.93	4.791
508.16	4.912
508.39	4.923
508.61	4.944
508.84	4.781
509.07	4.833
509.29	4.933
509.52	4.874
509.75	4.852
509.97	4.805
510.20	4.952
510.43	5.014
510.65	4.920
510.88	4.987
511.10	5.035
511.33	4.993
511.56	4.858
511.78	4.978
512.01	4.801
512.24	4.859
512.46	4.899
512.69	4.839
512.92	4.737
513.14	4.744
513.37	4.722
513.59	4.846
513.82	5.018
514.05	5.095
514.27	4.994
514.50	5.056
514.73	4.877
514.95	4.860
515.18	4.906
515.40	4.932
515.63	4.986
515.86	4.976
516.08	4.988
516.31	4.984
516.54	4.987
516.76	5.062
516.99	4.943
517.21	4.971
517.44	4.930
517.67	4.971
517.89	4.870
518.12	5.080
518.34	4.916
518.57	4.739
518.80	4.712
519.02	4.769
519.25	4.850
519.47	4.851
519.70	4.996
519.93	5.007
520.15	5.005
520.38	5.010
520.60	5.022
520.83	5.052
521.05	5.014
521.28	5.024
521.51	5.042
521.73	5.097
521.96	5.096
522.18	5.026
522.41	4.895
522.63	4.833
522.86	4.868
523.09	4.875
523.31	4.805
523.54	4.828
523.76	4.914
523.99	4.818
524.21	4.803
524.44	4.836
524.67	4.823
524.89	4.804
525.12	4.874
525.34	4.743
525.57	4.741
525.79	4.794
526.02	4.866
526.24	4.742
526.47	4.842
526.69	4.678
526.92	4.691
527.15	4.670
527.37	4.658
527.60	4.585
527.82	4.694
528.05	4.772
528.27	4.701
528.50	4.905
528.72	4.871
528.95	4.774
529.17	4.933
529.40	4.840
529.62	4.793
529.85	4.833
530.07	4.777
530.30	4.777
530.52	4.898
530.75	4.896
530.98	4.926
531.20	4.799
531.43	4.797
531.65	4.778
531.88	4.791
532.10	4.959
532.33	4.955
532.55	4.935
532.78	4.982
533.00	4.927
533.23	4.895
533.45	4.895
533.68	5.002
533.90	4.851
534.13	4.937
534.35	4.859
534.58	4.823
534.80	4.810
535.03	4.883
535.25	4.839
535.47	4.756
535.70	4.905
535.92	5.007
536.15	5.125
536.37	5.164
536.60	5.205
536.82	5.239
537.05	5.282
537.27	5.261
537.50	5.247
537.72	5.192
537.95	5.174
538.17	5.205
538.40	5.292
538.62	5.160
538.85	5.126
539.07	5.091
539.29	5.049
539.52	5.012
539.74	5.029
539.97	5.062
540.19	5.072
540.42	5.005
540.64	4.880
540.87	4.773
541.09	4.714
541.32	4.865
541.54	4.810
541.76	4.777
541.99	4.802
542.21	4.767
542.44	4.868
542.66	4.990
542.89	5.029
543.11	5.090
543.33	5.116
543.56	4.987
543.78	5.039
544.01	5.046
544.23	5.007
544.46	4.950
544.68	4.974
544.90	5.028
545.13	5.048
545.35	4.967
545.58	4.949
545.80	4.872
546.03	4.805
546.25	4.795
546.47	4.786
546.70	4.857
546.92	4.920
547.15	5.013
547.37	4.992
547.59	4.923
547.82	4.854
548.04	4.848
548.27	4.839
548.49	4.870
548.71	4.803
548.94	4.803
549.16	4.799
549.39	4.765
549.61	4.770
549.83	4.796
550.06	4.833
550.28	4.851
550.50	4.853
550.73	4.783
550.95	4.719
551.18	4.738
551.40	4.687
551.62	4.811
551.85	4.734
552.07	4.732
552.29	4.783
552.52	4.845
552.74	4.907
552.97	4.944
553.19	4.884
553.41	4.878
553.64	4.928
553.86	4.909
554.08	4.852
554.31	4.796
554.53	4.849
554.75	4.725
554.98	4.643
555.20	4.682
555.42	4.704
555.65	4.781
555.87	4.741
556.10	4.821
556.32	4.912
556.54	4.928
556.77	5.019
556.99	5.037
557.21	5.031
557.44	5.017
557.66	5.034
557.88	4.974
558.11	4.935
558.33	4.980
558.55	4.938
558.78	4.963
559.00	4.970
559.22	4.887
559.44	4.818
559.67	4.767
559.89	4.761
560.11	4.741
560.34	4.660
560.56	4.711
560.78	4.758
561.01	4.812
561.23	4.842
561.45	4.816
561.68	4.768
561.90	4.782
562.12	4.899
562.35	4.893
562.57	4.894
562.79	4.771
563.01	4.786
563.24	4.765
563.46	4.760
563.68	4.793
563.91	4.753
564.13	4.753
564.35	4.722
564.57	4.751
564.80	4.819
565.02	4.883
565.24	4.880
565.47	4.879
565.69	4.912
565.91	4.914
566.13	4.952
566.36	4.910
566.58	4.834
566.80	4.751
567.02	4.704
567.25	4.689
567.47	4.712
567.69	4.769
567.92	4.803
568.14	4.787
568.36	4.809
568.58	4.761
568.81	4.824
569.03	4.754
569.25	4.849
569.47	4.931
569.70	5.032
569.92	5.088
570.14	5.023
570.36	4.981
570.59	4.898
570.81	4.800
571.03	4.772
571.25	4.682
571.47	4.642
571.70	4.623
571.92	4.607
572.14	4.566
572.36	4.579
572.59	4.625
572.81	4.578
573.03	4.585
573.25	4.616
573.48	4.727
573.70	4.728
573.92	4.783
574.14	4.759
574.36	4.752
574.59	4.767
574.81	4.695
575.03	4.744
575.25	4.663
575.47	4.674
575.70	4.646
575.92	4.768
576.14	4.863
576.36	4.802
576.59	4.762
576.81	4.834
577.03	4.770
577.25	4.832
577.47	4.772
577.69	4.838
577.92	4.859
578.14	4.925
578.36	4.896
578.58	4.921
578.80	4.916
579.03	4.842
579.25	4.813
579.47	4.785
579.69	4.795
579.91	4.767
580.14	4.718
580.36	4.676
580.58	4.671
580.80	4.716
581.02	4.692
581.24	4.743
581.47	4.680
581.69	4.669
581.91	4.701
582.13	4.699
582.35	4.693
582.57	4.687
582.79	4.679
583.02	4.732
583.24	4.715
583.46	4.695
583.68	4.717
583.90	4.653
584.12	4.652
584.35	4.708
584.57	4.629
584.79	4.593
585.01	4.640
585.23	4.681
585.45	4.810
585.67	4.920
585.90	4.943
586.12	4.913
586.34	4.855
586.56	4.792
586.78	4.795
587.00	4.759
587.22	4.725
587.44	4.662
587.67	4.627
587.89	4.641
588.11	4.639
588.33	4.569
588.55	4.605
588.77	4.599
588.99	4.565
589.21	4.503
589.43	4.469
589.66	4.468
589.88	4.425
590.10	4.464
590.32	4.455
590.54	4.479
590.76	4.564
590.98	4.607
591.20	4.607
591.42	4.583
591.64	4.551
591.87	4.483
592.09	4.480
592.31	4.498
592.53	4.576
592.75	4.662
592.97	4.694
593.19	4.671
593.41	4.647
593.63	4.590
593.85	4.609
594.07	4.658
594.29	4.615
594.52	4.650
594.74	4.737
594.96	4.773
595.18	4.726
595.40	4.720
595.62	4.707
595.84	4.708
596.06	4.757
596.28	4.739
596.50	4.775
596.72	4.781
596.94	4.812
597.16	4.902
597.38	4.927
597.60	4.952
597.82	4.993
598.05	5.024
598.27	4.996
598.49	4.967
598.71	4.983
598.93	5.029
599.15	5.122
599.37	5.171
599.59	5.176
599.81	5.255
600.03	5.236
600.25	5.263
600.47	5.329
600.69	5.319
600.91	5.405
601.13	5.452
601.35	5.423
601.57	5.481
601.79	5.656
602.01	5.794
602.23	5.960
602.45	6.069
602.67	6.153
602.89	6.257
603.11	6.348
603.33	6.552
603.55	6.633
603.77	6.758
603.99	6.899
604.21	7.077
604.43	7.177
604.65	7.426
604.87	7.642
605.09	7.826
605.31	8.009
605.53	8.158
605.75	8.361
605.97	8.561
606.19	8.742
606.41	8.911
606.63	9.015
606.85	9.092
607.07	9.279
607.29	9.540
607.51	9.801
607.73	10.111
607.95	10.321
608.17	10.551
608.39	10.782
608.61	10.885
608.83	11.010
609.05	11.177
609.27	11.367
609.49	11.601
609.71	11.762
609.93	11.953
610.15	12.049
610.37	12.166
610.59	12.299
610.81	12.352
611.03	12.427
611.24	12.642
611.46	12.721
611.68	12.902
611.90	12.909
612.12	12.916
612.34	13.044
612.56	13.207
612.78	13.385
613.00	13.591
613.22	13.747
613.44	13.982
613.66	14.058
613.88	14.111
614.10	14.210
614.32	14.365
614.54	14.640
614.75	14.832
614.97	15.051
615.19	15.210
615.41	15.366
615.63	15.506
615.85	15.703
616.07	15.843
616.29	15.872
616.51	15.919
616.73	15.907
616.95	16.073
617.17	16.203
617.38	16.384
617.60	16.607
617.82	16.839
618.04	16.917
618.26	16.936
618.48	17.125
618.70	17.374
618.92	17.615
619.14	17.813
619.36	18.003
619.57	17.938
619.79	18.035
620.01	18.185
620.23	18.445
620.45	18.650
620.67	18.899
620.89	18.948
621.11	19.117
621.33	19.409
621.54	19.646
621.76	19.823
621.98	20.063
622.20	20.257
622.42	20.351
622.64	20.406
622.86	20.606
623.07	20.754
623.29	21.142
623.51	21.336
623.73	21.556
623.95	21.663
624.17	21.934
624.39	22.228
624.60	22.436
624.82	22.729
625.04	22.996
625.26	23.333
625.48	23.614
625.70	23.826
625.92	24.141
626.13	24.498
626.35	24.779
626.57	25.220
626.79	25.639
627.01	26.055
627.23	26.322
627.44	26.646
627.66	26.894
627.88	27.233
628.10	27.777
628.32	28.476
628.54	29.124
628.75	29.925
628.97	30.604
629.19	31.063
629.41	31.712
629.63	32.151
629.84	32.510
630.06	32.829
630.28	33.377
630.50	33.723
630.72	33.932
630.94	34.172
631.15	34.425
631.37	34.602
631.59	34.795
631.81	34.894
632.03	35.097
632.24	35.283
632.46	35.573
632.68	35.855
632.90	36.003
633.11	36.344
633.33	36.762
633.55	36.912
633.77	36.948
633.99	37.063
634.20	37.075
634.42	37.146
634.64	37.435
634.86	37.671
635.08	37.859
635.29	38.017
635.51	38.261
635.73	38.661
635.95	38.910
636.16	39.264
636.38	39.588
636.60	39.855
636.82	40.333
637.03	40.658
637.25	41.204
637.47	41.409
637.69	41.655
637.90	41.706
638.12	42.124
638.34	42.699
638.56	43.113
638.77	43.726
638.99	44.095
639.21	44.182
639.43	44.193
639.64	44.155
639.86	44.354
640.08	44.321
640.30	44.384
640.51	44.349
640.73	44.643
640.95	44.987
641.17	45.095
641.38	45.257
641.60	45.319
641.82	45.274
642.03	45.266
642.25	44.921
642.47	44.579
642.69	44.607
642.90	44.662
643.12	44.976
643.34	45.233
643.55	45.472
643.77	45.564
643.99	45.512
644.21	45.483
644.42	45.323
644.64	45.276
644.86	44.979
645.07	44.830
645.29	44.733
645.51	44.410
645.73	44.384
645.94	44.595
646.16	44.772
646.38	44.955
646.59	45.052
646.81	44.997
647.03	45.035
647.24	45.104
647.46	45.051
647.68	44.946
647.89	44.985
648.11	45.215
648.33	45.317
648.54	45.139
648.76	45.023
648.98	45.150
649.19	45.353
649.41	45.398
649.63	45.521
649.84	45.541
650.06	45.593
650.28	45.628
650.49	45.610
650.71	45.545
650.93	45.607
651.14	45.752
651.36	45.816
651.58	45.923
651.79	45.978
652.01	46.011
652.23	45.928
652.44	45.798
652.66	45.703
652.88	45.608
653.09	45.637
653.31	45.727
653.52	45.678
653.74	45.501
653.96	45.785
654.17	45.893
654.39	45.733
654.61	45.668
654.82	45.623
655.04	45.445
655.25	45.310
655.47	45.179
655.69	45.158
655.90	45.246
656.12	45.421
656.34	45.663
656.55	46.102
656.77	45.990
656.98	45.753
657.20	45.557
657.42	45.839
657.63	45.917
657.85	46.051
658.06	45.904
658.28	45.966
658.50	45.898
658.71	45.914
658.93	45.965
659.14	46.202
659.36	46.139
659.58	46.113
659.79	45.857
660.01	46.145
660.22	46.205
660.44	46.087
660.65	46.327
660.87	46.770
661.09	46.703
661.30	46.838
661.52	47.167
661.73	47.029
661.95	46.959
662.16	46.825
662.38	46.412
662.60	46.145
662.81	46.075
663.03	46.153
663.24	45.925
663.46	46.250
663.67	46.449
663.89	46.739
664.11	46.934
664.32	46.993
664.54	46.867
664.75	46.715
664.97	46.502
665.18	46.386
665.40	46.293
665.61	46.559
665.83	46.847
666.04	46.875
666.26	47.029
666.48	46.811
666.69	46.793
666.91	46.886
667.12	46.768
667.34	46.728
667.55	46.828
667.77	46.845
667.98	46.844
668.20	46.988
668.41	46.824
668.63	46.536
668.84	46.409
669.06	46.305
669.27	46.684
669.49	46.944
669.70	46.987
669.92	46.910
670.13	46.735
670.35	46.956
670.56	47.336
670.78	47.358
670.99	47.336
671.21	47.349
671.42	47.016
671.64	46.715
671.85	46.427
672.07	46.350
672.28	46.350
672.50	46.576
672.71	46.633
672.93	46.676
673.14	46.607
673.36	46.716
673.57	46.770
673.79	46.906
674.00	46.882
674.22	46.992
674.43	46.850
674.65	46.992
674.86	47.257
675.08	47.398
675.29	47.048
675.50	46.941
675.72	46.950
675.93	46.808
676.15	46.851
676.36	46.912
676.58	46.888
676.79	47.093
677.01	47.496
677.22	47.577
677.44	47.393
677.65	47.192
677.86	47.180
678.08	47.341
678.29	47.724
678.51	47.752
678.72	47.875
678.94	47.692
679.15	47.367
679.37	47.104
679.58	46.966
679.79	47.290
680.01	47.349
680.22	47.407
680.44	47.361
680.65	47.242
680.87	47.226
681.08	47.366
681.29	47.698
681.51	47.669
681.72	47.621
681.94	47.263
682.15	47.127
682.36	47.168
682.58	46.949
682.79	46.972
683.01	47.226
683.22	47.674
683.43	47.860
683.65	48.159
683.86	47.937
684.08	47.595
684.29	47.531
684.50	47.258
684.72	47.241
684.93	47.302
685.15	47.310
685.36	47.581
685.57	47.502
685.79	47.492
686.00	47.390
686.22	47.417
686.43	47.470
686.64	47.306
686.86	47.114
687.07	46.934
687.28	47.015
687.50	47.211
687.71	47.209
687.93	47.432
688.14	47.303
688.35	47.238
688.57	47.255
688.78	47.371
688.99	47.673
689.21	48.061
689.42	48.396
689.63	48.305
689.85	47.988
690.06	47.896
690.27	48.072
690.49	47.942
690.70	47.685
690.91	47.391
691.13	47.446
691.34	47.718
691.56	47.666
691.77	47.489
691.98	47.317
692.20	47.403
692.41	47.587
692.62	47.663
692.84	47.374
693.05	47.452
693.26	47.683
693.47	47.835
693.69	47.720
693.90	47.465
694.11	47.527
694.33	47.619
694.54	47.733
694.75	47.828
694.97	47.960
695.18	47.826
695.39	47.692
695.61	47.488
695.82	47.488
696.03	47.475
696.25	47.592
696.46	47.725
696.67	47.696
696.88	47.486
697.10	47.519
697.31	47.467
697.52	47.540
697.74	47.791
697.95	47.915
698.16	47.942
698.37	48.093
698.59	48.385
698.80	48.467
699.01	48.324
699.23	48.199
699.44	48.059
699.65	47.764
699.86	47.698
700.08	47.808
700.29	47.852
700.50	47.833
700.71	48.023
700.93	47.854
701.14	47.632
701.35	47.392
701.56	47.232
701.78	47.324
701.99	47.690
702.20	47.929
702.41	48.253
702.63	48.204
702.84	48.270
703.05	48.250
703.26	48.267
703.48	48.417
703.69	48.473
703.90	48.561
704.11	48.493
704.33	48.454
704.54	48.211
704.75	47.930
704.96	47.690
705.18	47.725
705.39	47.772
705.60	47.649
705.81	47.708
706.02	47.405
706.24	47.559
706.45	47.480
706.66	47.688
706.87	47.644
707.09	47.692
707.30	48.159
707.51	48.533
707.72	48.774
707.93	48.954
708.15	48.895
708.36	48.621
708.57	48.348
708.78	48.095
708.99	48.005
709.21	48.195
709.42	48.540
709.63	48.364
709.84	48.873
710.05	49.112
710.27	48.845
710.48	48.800
710.69	48.970
710.90	48.716
711.11	48.685
711.32	48.692
711.54	48.704
711.75	48.673
711.96	48.498
712.17	48.435
712.38	48.113
712.59	48.160
712.81	48.294
713.02	48.552
713.23	48.519
713.44	48.172
713.65	47.863
713.86	47.462
714.08	47.604
714.29	47.673
714.50	47.753
714.71	47.797
714.92	47.878
715.13	47.971
715.34	48.340
715.56	48.748
715.77	49.002
715.98	48.965
716.19	48.771
716.40	48.574
716.61	48.598
716.82	48.803
717.04	48.696
717.25	48.540
717.46	48.297
717.67	48.205
717.88	48.250
718.09	48.305
718.30	48.475
718.51	48.854
718.73	48.961
718.94	49.130
719.15	49.333
719.36	49.445
719.57	48.912
719.78	48.584
719.99	48.678
720.20	48.816
720.41	48.681
720.63	48.783
720.84	48.961
721.05	49.050
721.26	49.171
721.47	49.205
721.68	49.412
721.89	49.155
722.10	48.875
722.31	48.876
722.52	48.579
722.73	48.538
722.95	48.585
723.16	48.946
723.37	49.424
723.58	49.476
723.79	49.280
724.00	49.376
724.21	49.581
724.42	49.788
724.63	49.705
724.84	49.755
725.05	49.806
725.26	49.722
725.47	49.361
725.68	48.815
725.90	48.800
726.11	49.004
726.32	49.211
726.53	49.409
726.74	49.465
726.95	49.366
727.16	49.464
727.37	49.242
727.58	49.185
727.79	49.406
728.00	49.345
728.21	49.310
728.42	49.041
728.63	48.559
728.84	48.297
729.05	48.075
729.26	48.277
729.47	48.888
729.68	49.346
729.89	49.800
730.10	50.125
730.31	49.836
730.52	49.714
730.73	49.537
730.94	49.506
731.15	49.413
731.36	49.216
731.57	49.042
731.78	48.884
731.99	49.017
732.20	48.926
732.41	48.755
732.62	48.689
732.83	48.908
733.04	49.084
733.25	48.989
733.46	49.098
733.67	49.126
733.88	48.838
734.09	48.945
734.30	49.016
734.51	49.049
734.72	49.470
734.93	49.377
735.14	49.278
735.35	49.291
735.56	49.354
735.77	49.201
735.98	49.118
736.19	49.049
736.40	48.735
736.61	48.930
736.82	49.027
737.03	48.841
737.24	48.835
737.45	48.800
737.66	48.508
737.87	48.594
738.08	48.623
738.29	48.930
738.50	49.396
738.71	49.984
738.92	50.259
739.13	50.393
739.34	50.065
739.55	49.933
739.75	49.680
739.96	49.385
740.17	49.406
740.38	49.609
740.59	49.698
740.80	49.625
741.01	49.292
741.22	49.513
741.43	49.645
741.64	49.409
741.85	49.166
742.06	48.807
742.27	48.485
742.48	48.691
742.68	48.689
742.89	48.645
743.10	48.963
743.31	49.280
743.52	49.331
743.73	49.389
743.94	49.314
744.15	49.361
744.36	49.236
744.57	49.407
744.78	49.513
744.98	49.297
745.19	49.455
745.40	49.500
745.61	49.567
745.82	49.182
746.03	49.090
746.24	49.505
746.45	49.515
746.66	49.528
746.86	49.754
747.07	49.454
747.28	49.520
747.49	49.819
747.70	49.545
747.91	49.618
748.12	49.852
748.33	50.500
748.53	50.515
748.74	50.411
748.95	50.056
749.16	49.995
749.37	49.838
749.58	49.408
749.79	48.878
749.99	48.520
750.20	48.709
750.41	48.694
750.62	48.819
750.83	49.187
751.04	49.561
751.25	49.595
751.45	49.453
751.66	49.616
751.87	49.676
752.08	49.352
752.29	48.928
752.50	48.835
752.70	48.773
752.91	49.082
753.12	49.051
753.33	48.970
753.54	49.196
753.75	49.329
753.95	49.419
754.16	49.530
754.37	49.509
754.58	49.507
754.79	49.924
754.99	50.247
755.20	50.286
755.41	50.035
755.62	49.854
755.83	50.006
756.04	49.806
756.24	49.897
756.45	49.913
756.66	49.500
756.87	49.608
757.08	49.503
757.28	49.422
757.49	49.460
757.70	49.536
757.91	49.613
758.11	49.480
758.32	49.677
758.53	49.734
758.74	49.590
758.95	49.393
759.15	49.637
759.36	49.651
759.57	49.723
759.78	49.801
759.98	49.641
760.19	49.422
760.40	49.500
760.61	49.577
760.82	49.646
761.02	49.808
761.23	49.726
761.44	49.436
761.65	49.265
761.85	49.013
762.06	48.851
762.27	48.637
762.48	48.739
762.68	49.206
762.89	49.670
763.10	49.869
763.31	50.129
763.51	50.144
763.72	49.694
763.93	49.802
764.13	49.763
764.34	49.775
764.55	49.953
764.76	49.882
764.96	49.870
765.17	49.681
765.38	49.493
765.59	49.440
765.79	49.899
766.00	50.053
766.21	49.949
766.41	50.003
766.62	49.671
766.83	49.575
767.04	49.072
767.24	49.013
767.45	49.205
767.66	49.554
767.86	50.081
768.07	50.177
768.28	50.137
768.48	49.939
768.69	49.669
768.90	49.278
769.11	49.221
769.31	49.221
769.52	49.260
769.73	49.239
769.93	49.426
770.14	49.708
770.35	49.849
770.55	49.868
770.76	50.117
770.97	50.040
771.17	49.983
771.38	49.898
771.59	50.119
771.79	50.207
772.00	50.514
772.21	50.709
772.41	51.000
772.62	50.729
772.83	50.148
773.03	49.442
773.24	49.352
773.45	49.337
773.65	49.423
773.86	49.635
774.07	49.866
774.27	49.940
774.48	50.125
774.69	50.136
774.89	49.916
775.10	49.845
775.30	49.888
775.51	49.401
775.72	49.406
775.92	49.583
776.13	49.752
776.34	50.364
776.54	50.922
776.75	51.232
776.95	50.926
777.16	50.832
777.37	50.721
777.57	50.412
777.78	50.495
777.99	50.406
778.19	50.068
778.40	49.834
778.60	49.471
778.81	49.151
779.02	48.841
779.22	48.703
779.43	48.836
779.63	48.770
779.84	49.155
780.05	49.173
780.25	49.046
780.46	49.222
780.66	49.151
780.87	49.263
781.08	49.288
781.28	49.727
781.49	49.859
781.69	50.003
781.90	50.044
782.10	50.147
782.31	49.918
782.52	50.038
782.72	49.956
782.93	50.101
783.13	50.157
783.34	50.325
783.54	50.252
783.75	50.171
783.96	50.286
784.16	50.099
784.37	49.820
784.57	49.635
784.78	49.451
784.98	49.372
785.19	48.755
785.39	48.309
785.60	48.549
785.80	48.864
786.01	49.408
786.22	49.390
786.42	49.624
786.63	49.614
786.83	49.571
787.04	49.425
787.24	49.396
787.45	49.654
787.65	49.611
787.86	49.655
788.06	49.986
788.27	49.935
788.47	49.840
788.68	49.374
788.88	49.465
789.09	49.648
789.29	49.531
789.50	49.325
789.70	49.797
789.91	49.756
790.11	49.755
790.32	49.631
790.52	49.693
790.73	49.689
790.93	49.650
791.14	49.684
791.34	49.579
791.55	49.687
791.75	49.650
791.96	49.646
792.16	49.768
792.37	49.692
792.57	49.747
792.78	49.995
792.98	50.163
793.19	50.340
793.39	50.675
793.60	50.474
793.80	50.209
794.01	50.083
794.21	50.288
794.42	50.230
794.62	50.267
794.83	50.506
795.03	50.662
795.24	50.638
795.44	50.743
795.64	50.275
795.85	50.018
796.05	49.970
796.26	49.682
796.46	49.589
796.67	49.559
796.87	49.576
797.08	49.428
797.28	49.499
797.48	49.796
797.69	49.858
797.89	49.585
798.10	49.917
798.30	49.964
798.51	49.858
798.71	49.704
798.91	49.483
799.12	49.385
799.32	49.224
799.53	49.972
799.73	50.552
799.94	50.854
800.14	50.644
800.34	50.337
800.55	50.120
800.75	50.072
800.96	49.762
801.16	49.564
801.36	49.449
801.57	48.948
801.77	48.775
801.98	49.122
802.18	49.585
802.38	50.130
802.59	49.947
802.79	49.990
803.00	49.925
803.20	49.765
803.40	49.592
803.61	49.358
803.81	49.559
804.02	49.094
804.22	48.761
804.42	49.050
804.63	48.984
804.83	49.117
805.03	49.012
805.24	48.890
805.44	49.244
805.65	49.221
805.85	49.487
806.05	49.920
806.26	50.289
806.46	49.887
806.66	49.756
806.87	49.574
807.07	49.637
807.27	49.815
807.48	49.633
807.68	49.644
807.88	50.014
808.09	49.932
808.29	50.118
808.49	50.424
808.70	50.262
808.90	50.409
809.10	49.790
809.31	49.651
809.51	49.517
809.71	49.632
809.92	49.606
810.12	49.509
810.32	49.485
810.53	49.423
810.73	49.486
810.93	49.310
811.14	49.245
811.34	49.277
811.54	49.346
811.75	49.161
811.95	49.429
812.15	49.405
812.36	49.714
812.56	49.807
812.76	49.560
812.96	49.195
813.17	49.001
813.37	49.076
813.57	49.078
813.78	48.937
813.98	49.104
814.18	49.343
814.38	49.353
814.59	48.782
814.79	48.693
814.99	48.728
815.20	48.856
815.40	49.483
815.60	49.682
815.80	49.919
816.01	50.240
816.21	50.642
816.41	51.113
816.62	51.515
816.82	51.384
817.02	51.011
817.22	50.917
817.43	50.645
817.63	50.591
817.83	50.170
818.03	50.426
818.24	49.941
818.44	49.883
818.64	49.646
818.84	49.408
819.05	49.494
819.25	49.380
819.45	49.214
819.65	49.308
819.86	49.282
820.06	49.661
820.26	49.620
820.46	49.840
820.66	49.996
820.87	49.985
821.07	50.375
821.27	50.613
821.47	50.928
821.68	51.018
821.88	51.267
822.08	51.094
822.28	50.811
>>>>>End Spectral Data<<<<<
