OOIBase32 Version 2.0.1.4 Data File
++++++++++++++++++++++++++++++++++++
Date: 11-03-2025, 10:19:45
User: Valued Ocean Optics Customer
Spectrometer Serial Number: HR2B216
Spectrometer Channel: Master
Integration Time (msec): 5
Spectra Averaged: 80
Boxcar Smoothing: 0
Correct for Electrical Dark: Disabled
Time Normalized: Disabled
Dual-beam Reference: Disabled
Reference Channel: Master
Temperature: Not acquired
Spectrometer Type: S2000
ADC Type: HR2000
Number of Pixels in File: 2048
Graph Title: 
>>>>>Begin Spectral Data<<<<<
373.12	0.000
373.35	193.443
373.59	157.377
373.82	383.340
374.06	363.334
374.29	-1100.015
374.53	460.606
374.76	-449.997
375.00	425.582
375.23	267.443
375.47	214.925
375.70	1018.206
375.94	412.497
376.17	315.153
376.40	711.115
376.64	1312.520
376.87	-500.014
377.11	-675.010
377.34	-2432.933
377.58	220.833
377.81	325.808
378.05	483.999
378.28	294.285
378.52	620.001
378.75	441.384
378.99	403.445
379.22	-7449.558
379.45	-170.149
379.69	-72.042
379.92	-190.907
380.16	-324.487
380.39	-177.421
380.63	-58.824
380.86	-112.245
381.10	-42.106
381.33	-102.678
381.56	-83.089
381.80	-25.175
382.03	-44.379
382.27	-63.865
382.50	-68.852
382.74	-113.208
382.97	-105.263
383.21	-108.162
383.44	-50.326
383.67	-80.357
383.91	-113.000
384.14	-157.334
384.38	-59.028
384.61	-59.649
384.84	-64.815
385.08	-91.177
385.31	-172.415
385.55	-86.259
385.78	-93.163
386.02	-63.483
386.25	-36.123
386.48	-54.144
386.72	-82.000
386.95	-60.309
387.19	-53.165
387.42	-65.069
387.65	-33.766
387.89	-106.666
388.12	-31.841
388.36	-48.718
388.59	-60.846
388.82	-57.143
389.06	-25.397
389.29	-39.806
389.53	-36.170
389.76	-33.483
389.99	-99.325
390.23	-46.119
390.46	-47.346
390.70	-54.217
390.93	-48.846
391.16	-63.492
391.40	-46.753
391.63	-31.419
391.87	-52.852
392.10	-45.783
392.33	-28.283
392.57	-21.203
392.80	-53.557
393.03	-43.145
393.27	-34.324
393.50	-41.581
393.74	-28.136
393.97	-20.110
394.20	-28.165
394.44	-37.898
394.67	-32.653
394.90	-38.730
395.14	-33.663
395.37	-48.921
395.60	-40.063
395.84	-30.790
396.07	-36.261
396.31	-33.994
396.54	-19.946
396.77	-25.662
397.01	-36.240
397.24	-30.105
397.47	-39.153
397.71	-23.395
397.94	-36.828
398.17	-28.642
398.41	-47.787
398.64	-27.822
398.87	-17.402
399.11	-20.268
399.34	-16.524
399.57	-31.250
399.81	-17.793
400.04	-22.779
400.27	-20.645
400.51	-34.402
400.74	-32.787
400.97	-13.189
401.21	-25.586
401.44	-22.351
401.67	-24.159
401.91	-25.047
402.14	-21.881
402.37	-20.489
402.61	-22.283
402.84	-13.321
403.07	-14.485
403.31	-12.106
403.54	-11.920
403.77	-18.324
404.00	-18.512
404.24	-12.313
404.47	-27.069
404.70	-22.091
404.94	-25.000
405.17	-28.405
405.40	-24.346
405.64	-19.660
405.87	-20.701
406.10	-18.829
406.34	-18.694
406.57	-16.615
406.80	-16.063
407.03	-10.632
407.27	-26.875
407.50	-14.900
407.73	-8.840
407.97	-18.806
408.20	-16.716
408.43	-15.651
408.66	-10.610
408.90	-15.681
409.13	-11.735
409.36	-12.737
409.60	-17.639
409.83	-18.414
410.06	-11.779
410.29	-7.430
410.53	-8.496
410.76	-15.594
410.99	-11.932
411.22	-12.229
411.46	-14.952
411.69	-11.525
411.92	-7.987
412.16	-15.402
412.39	-11.022
412.62	-12.750
412.85	-8.084
413.09	-7.533
413.32	-8.515
413.55	-8.543
413.78	-9.981
414.02	-15.249
414.25	-14.839
414.48	-15.512
414.71	-19.087
414.95	-10.612
415.18	-6.630
415.41	-4.643
415.64	-8.137
415.88	-12.593
416.11	-9.628
416.34	-12.259
416.57	-8.559
416.80	-9.791
417.04	-10.687
417.27	-10.644
417.50	-11.885
417.73	-12.977
417.97	-6.359
418.20	-4.868
418.43	-6.067
418.66	-6.636
418.90	-11.433
419.13	-5.444
419.36	-6.942
419.59	-7.018
419.82	-6.513
420.06	-3.995
420.29	-4.919
420.52	-4.118
420.75	-8.562
420.98	-6.555
421.22	-9.194
421.45	-7.013
421.68	-4.726
421.91	-5.420
422.15	-5.071
422.38	-5.356
422.61	-3.618
422.84	-4.350
423.07	-3.316
423.31	-8.618
423.54	-6.025
423.77	-3.454
424.00	-8.477
424.23	-8.155
424.46	-5.139
424.70	-4.296
424.93	-5.240
425.16	-4.998
425.39	-7.642
425.62	-3.272
425.86	-4.024
426.09	-5.821
426.32	-3.797
426.55	-4.687
426.78	-2.415
427.01	-5.041
427.25	-5.470
427.48	-6.753
427.71	-5.989
427.94	-4.370
428.17	-4.918
428.40	-4.543
428.64	-2.984
428.87	-2.690
429.10	-3.269
429.33	-6.092
429.56	-4.422
429.79	-4.627
430.03	-6.444
430.26	-6.210
430.49	-2.936
430.72	-1.668
430.95	-3.723
431.18	-5.506
431.42	-2.850
431.65	-5.461
431.88	-4.318
432.11	-2.915
432.34	-4.361
432.57	-3.248
432.80	-2.822
433.04	-2.314
433.27	-3.158
433.50	-3.758
433.73	-1.904
433.96	-3.636
434.19	-2.766
434.42	-1.987
434.65	-2.407
434.89	-3.681
435.12	-0.340
435.35	-1.433
435.58	-3.237
435.81	-2.857
436.04	-2.646
436.27	-1.093
436.50	-1.838
436.74	-4.496
436.97	-4.408
437.20	-3.982
437.43	-3.613
437.66	-3.832
437.89	-1.993
438.12	-2.072
438.35	-3.116
438.58	-3.860
438.82	-2.500
439.05	-2.105
439.28	-2.628
439.51	-2.918
439.74	-2.352
439.97	-2.875
440.20	-1.665
440.43	-3.235
440.66	-3.491
440.89	-2.860
441.12	-1.768
441.36	-0.807
441.59	-1.610
441.82	-1.591
442.05	-0.689
442.28	-2.745
442.51	-2.655
442.74	-2.155
442.97	-1.098
443.20	-0.852
443.43	-2.176
443.66	-1.327
443.89	-3.214
444.13	-1.569
444.36	-2.355
444.59	-1.512
444.82	-1.339
445.05	-2.013
445.28	-1.494
445.51	-1.954
445.74	-0.266
445.97	-1.197
446.20	-0.821
446.43	-1.569
446.66	-2.309
446.89	-1.472
447.12	-2.573
447.35	-1.193
447.58	-1.530
447.81	-1.180
448.05	-0.908
448.28	-1.949
448.51	-0.842
448.74	-1.234
448.97	-1.222
449.20	-2.131
449.43	-1.437
449.66	-1.752
449.89	-1.019
450.12	-1.099
450.35	-0.739
450.58	-0.759
450.81	-1.678
451.04	-0.826
451.27	-1.581
451.50	-1.299
451.73	-1.308
451.96	-1.260
452.19	-0.989
452.42	-1.740
452.65	-1.232
452.88	-1.351
453.11	-1.512
453.34	-1.005
453.57	-0.829
453.80	-1.182
454.03	-1.096
454.26	-0.328
454.49	-1.092
454.72	-1.622
454.95	-1.412
455.18	-1.123
455.41	-1.103
455.64	-1.274
455.87	-1.435
456.10	-0.753
456.33	-0.662
456.56	-0.930
456.79	-0.826
457.02	-1.743
457.25	-0.904
457.48	-1.198
457.71	-1.082
457.94	-1.550
458.17	-1.082
458.40	-0.761
458.63	-1.769
458.86	-0.975
459.09	-0.909
459.32	-1.078
459.55	-1.383
459.78	-0.715
460.01	-0.944
460.24	-0.466
460.47	-0.294
460.70	-0.604
460.93	-0.828
461.16	-0.837
461.39	-0.641
461.62	-0.594
461.85	-1.201
462.08	-0.496
462.31	-0.670
462.54	-0.760
462.77	-1.419
463.00	-0.831
463.22	-0.368
463.45	-0.942
463.68	-0.735
463.91	-1.038
464.14	-0.512
464.37	-0.695
464.60	-1.529
464.83	-0.741
465.06	-1.064
465.29	-1.027
465.52	-0.861
465.75	-1.019
465.98	-0.613
466.21	-0.188
466.44	-0.506
466.67	-0.630
466.90	-0.636
467.12	-1.016
467.35	-0.534
467.58	-0.728
467.81	-0.618
468.04	-0.326
468.27	-0.871
468.50	-0.788
468.73	-0.647
468.96	-0.714
469.19	-0.534
469.42	-0.094
469.65	-0.903
469.87	-0.683
470.10	-0.997
470.33	-0.496
470.56	-0.404
470.79	-0.649
471.02	-0.599
471.25	-0.556
471.48	-0.620
471.71	-0.276
471.94	-0.538
472.17	-0.214
472.39	-0.785
472.62	-0.470
472.85	-0.418
473.08	-0.530
473.31	-0.786
473.54	-0.298
473.77	-0.483
474.00	-0.308
474.23	0.084
474.45	-0.267
474.68	-0.698
474.91	-0.595
475.14	-0.388
475.37	-0.523
475.60	0.089
475.83	-0.087
476.06	-0.466
476.28	-0.719
476.51	-0.674
476.74	-0.313
476.97	-0.302
477.20	-0.362
477.43	-0.217
477.66	-0.415
477.88	-0.622
478.11	-0.373
478.34	-0.226
478.57	-0.318
478.80	-0.436
479.03	-0.221
479.26	-0.354
479.48	-0.462
479.71	-0.324
479.94	-0.245
480.17	-0.215
480.40	-0.306
480.63	-0.509
480.86	-0.249
481.08	-0.272
481.31	-0.475
481.54	-0.172
481.77	0.167
482.00	-0.157
482.23	-0.220
482.45	-0.452
482.68	-0.229
482.91	0.004
483.14	-0.252
483.37	-0.274
483.60	-0.333
483.82	-0.418
484.05	-0.348
484.28	-0.229
484.51	-0.280
484.74	-0.153
484.96	-0.125
485.19	-0.270
485.42	-0.287
485.65	-0.180
485.88	-0.214
486.10	-0.273
486.33	-0.250
486.56	-0.294
486.79	-0.068
487.02	-0.265
487.25	-0.287
487.47	-0.336
487.70	-0.302
487.93	-0.201
488.16	-0.152
488.39	-0.255
488.61	-0.346
488.84	-0.347
489.07	-0.179
489.30	-0.364
489.52	-0.127
489.75	-0.205
489.98	-0.250
490.21	-0.191
490.44	-0.178
490.66	-0.134
490.89	-0.243
491.12	-0.172
491.35	-0.215
491.57	-0.210
491.80	-0.291
492.03	-0.199
492.26	-0.174
492.49	-0.260
492.71	-0.313
492.94	-0.108
493.17	-0.244
493.40	-0.150
493.62	-0.261
493.85	-0.094
494.08	-0.162
494.31	-0.138
494.53	-0.178
494.76	-0.253
494.99	-0.084
495.22	-0.202
495.44	-0.136
495.67	-0.144
495.90	-0.182
496.13	-0.139
496.35	-0.128
496.58	-0.240
496.81	-0.147
497.04	-0.100
497.26	-0.124
497.49	-0.131
497.72	-0.161
497.95	-0.233
498.17	-0.276
498.40	-0.264
498.63	-0.221
498.85	-0.238
499.08	-0.055
499.31	-0.260
499.54	-0.179
499.76	-0.043
499.99	-0.252
500.22	-0.193
500.44	-0.173
500.67	0.027
500.90	-0.017
501.13	-0.143
501.35	-0.258
501.58	-0.251
501.81	-0.136
502.03	-0.188
502.26	-0.194
502.49	-0.126
502.72	-0.109
502.94	-0.066
503.17	-0.133
503.40	-0.061
503.62	-0.143
503.85	-0.122
504.08	-0.088
504.30	-0.146
504.53	-0.192
504.76	-0.072
504.98	-0.129
505.21	-0.153
505.44	-0.150
505.67	-0.050
505.89	-0.039
506.12	-0.126
506.35	-0.165
506.57	-0.085
506.80	-0.133
507.03	-0.113
507.25	-0.140
507.48	-0.207
507.71	-0.182
507.93	-0.215
508.16	-0.195
508.39	-0.229
508.61	-0.226
508.84	-0.161
509.07	-0.166
509.29	-0.099
509.52	-0.114
509.75	-0.170
509.97	-0.139
510.20	-0.072
510.43	-0.155
510.65	-0.111
510.88	-0.159
511.10	-0.054
511.33	-0.119
511.56	-0.121
511.78	-0.130
512.01	-0.110
512.24	-0.092
512.46	-0.128
512.69	-0.126
512.92	-0.136
513.14	-0.137
513.37	-0.095
513.59	-0.178
513.82	-0.071
514.05	-0.105
514.27	-0.110
514.50	-0.112
514.73	-0.062
514.95	-0.082
515.18	-0.156
515.40	-0.126
515.63	-0.111
515.86	-0.048
516.08	-0.121
516.31	-0.050
516.54	-0.090
516.76	-0.112
516.99	-0.183
517.21	-0.129
517.44	-0.096
517.67	-0.075
517.89	-0.090
518.12	0.003
518.34	0.013
518.57	-0.164
518.80	-0.126
519.02	-0.110
519.25	-0.072
519.47	-0.053
519.70	-0.080
519.93	-0.170
520.15	-0.115
520.38	-0.141
520.60	-0.101
520.83	-0.076
521.05	-0.120
521.28	-0.134
521.51	-0.105
521.73	-0.079
521.96	-0.097
522.18	-0.084
522.41	-0.052
522.63	-0.112
522.86	-0.060
523.09	-0.053
523.31	-0.109
523.54	-0.122
523.76	-0.075
523.99	-0.054
524.21	-0.165
524.44	-0.079
524.67	-0.065
524.89	-0.126
525.12	-0.058
525.34	-0.103
525.57	-0.170
525.79	-0.131
526.02	-0.067
526.24	-0.134
526.47	-0.121
526.69	-0.051
526.92	-0.065
527.15	-0.167
527.37	-0.132
527.60	-0.129
527.82	-0.066
528.05	0.002
528.27	-0.122
528.50	-0.083
528.72	-0.099
528.95	-0.105
529.17	-0.062
529.40	-0.124
529.62	-0.118
529.85	-0.151
530.07	-0.097
530.30	-0.019
530.52	-0.047
530.75	-0.012
530.98	-0.024
531.20	-0.059
531.43	-0.011
531.65	-0.049
531.88	-0.082
532.10	-0.085
532.33	-0.104
532.55	-0.104
532.78	-0.131
533.00	-0.061
533.23	-0.037
533.45	-0.088
533.68	-0.002
533.90	-0.095
534.13	-0.048
534.35	-0.133
534.58	-0.111
534.80	-0.132
535.03	-0.097
535.25	-0.050
535.47	-0.123
535.70	-0.036
535.92	-0.090
536.15	-0.060
536.37	-0.024
536.60	-0.029
536.82	0.008
537.05	-0.063
537.27	-0.027
537.50	-0.140
537.72	-0.099
537.95	-0.092
538.17	-0.109
538.40	-0.052
538.62	-0.074
538.85	-0.068
539.07	-0.045
539.29	-0.064
539.52	-0.102
539.74	-0.086
539.97	-0.091
540.19	-0.109
540.42	-0.063
540.64	-0.028
540.87	-0.042
541.09	-0.080
541.32	-0.022
541.54	-0.070
541.76	-0.102
541.99	-0.073
542.21	-0.102
542.44	-0.078
542.66	-0.116
542.89	-0.047
543.11	-0.011
543.33	-0.005
543.56	-0.041
543.78	-0.017
544.01	-0.047
544.23	-0.086
544.46	-0.074
544.68	-0.066
544.90	-0.028
545.13	-0.082
545.35	-0.063
545.58	-0.032
545.80	-0.097
546.03	-0.061
546.25	-0.071
546.47	-0.056
546.70	-0.012
546.92	-0.015
547.15	-0.025
547.37	-0.060
547.59	-0.045
547.82	-0.018
548.04	-0.020
548.27	-0.054
548.49	-0.084
548.71	-0.064
548.94	0.003
549.16	-0.044
549.39	-0.052
549.61	-0.008
549.83	0.028
550.06	-0.036
550.28	-0.050
550.50	-0.035
550.73	-0.029
550.95	-0.018
551.18	-0.023
551.40	-0.059
551.62	0.027
551.85	-0.083
552.07	-0.055
552.29	-0.006
552.52	-0.058
552.74	-0.029
552.97	-0.020
553.19	0.011
553.41	-0.015
553.64	-0.012
553.86	-0.046
554.08	-0.064
554.31	-0.073
554.53	-0.049
554.75	-0.020
554.98	-0.026
555.20	0.004
555.42	-0.028
555.65	0.000
555.87	-0.037
556.10	0.006
556.32	-0.073
556.54	-0.025
556.77	0.032
556.99	0.010
557.21	-0.006
557.44	-0.032
557.66	-0.028
557.88	-0.029
558.11	-0.050
558.33	-0.064
558.55	-0.079
558.78	-0.029
559.00	-0.005
559.22	-0.025
559.44	-0.015
559.67	-0.028
559.89	-0.028
560.11	-0.014
560.34	-0.016
560.56	-0.024
560.78	-0.010
561.01	-0.004
561.23	-0.021
561.45	-0.010
561.68	-0.041
561.90	-0.038
562.12	0.027
562.35	-0.011
562.57	0.003
562.79	0.009
563.01	-0.023
563.24	-0.025
563.46	-0.004
563.68	-0.011
563.91	-0.011
564.13	-0.001
564.35	-0.016
564.57	-0.009
564.80	-0.002
565.02	-0.021
565.24	0.015
565.47	0.029
565.69	0.020
565.91	-0.056
566.13	-0.016
566.36	0.005
566.58	0.005
566.80	0.001
567.02	0.011
567.25	0.004
567.47	0.036
567.69	-0.002
567.92	0.041
568.14	0.042
568.36	0.026
568.58	0.028
568.81	-0.002
569.03	-0.031
569.25	-0.016
569.47	0.007
569.70	0.021
569.92	0.026
570.14	0.018
570.36	0.041
570.59	0.028
570.81	0.029
571.03	0.024
571.25	0.011
571.47	0.030
571.70	0.031
571.92	-0.004
572.14	-0.021
572.36	-0.012
572.59	0.041
572.81	0.056
573.03	0.018
573.25	0.005
573.48	0.034
573.70	0.040
573.92	0.041
574.14	0.035
574.36	0.023
574.59	0.054
574.81	0.022
575.03	0.026
575.25	0.045
575.47	0.045
575.70	-0.008
575.92	0.025
576.14	0.060
576.36	0.017
576.59	0.039
576.81	0.052
577.03	0.027
577.25	0.055
577.47	0.057
577.69	0.054
577.92	0.037
578.14	-0.011
578.36	0.031
578.58	0.062
578.80	0.086
579.03	0.054
579.25	0.025
579.47	0.078
579.69	0.080
579.91	0.064
580.14	0.023
580.36	0.076
580.58	0.055
580.80	0.049
581.02	0.039
581.24	0.059
581.47	0.064
581.69	0.034
581.91	0.038
582.13	0.059
582.35	0.034
582.57	0.057
582.79	0.072
583.02	0.078
583.24	0.063
583.46	0.073
583.68	0.081
583.90	0.075
584.12	0.096
584.35	0.092
584.57	0.073
584.79	0.064
585.01	0.099
585.23	0.119
585.45	0.105
585.67	0.092
585.90	0.090
586.12	0.093
586.34	0.110
586.56	0.116
586.78	0.093
587.00	0.112
587.22	0.087
587.44	0.105
587.67	0.103
587.89	0.090
588.11	0.135
588.33	0.148
588.55	0.143
588.77	0.115
588.99	0.108
589.21	0.125
589.43	0.117
589.66	0.102
589.88	0.096
590.10	0.149
590.32	0.140
590.54	0.133
590.76	0.125
590.98	0.144
591.20	0.151
591.42	0.147
591.64	0.115
591.87	0.147
592.09	0.151
592.31	0.164
592.53	0.158
592.75	0.174
592.97	0.144
593.19	0.162
593.41	0.160
593.63	0.143
593.85	0.187
594.07	0.189
594.29	0.167
594.52	0.190
594.74	0.186
594.96	0.181
595.18	0.169
595.40	0.176
595.62	0.147
595.84	0.189
596.06	0.200
596.28	0.184
596.50	0.209
596.72	0.204
596.94	0.196
597.16	0.220
597.38	0.196
597.60	0.212
597.82	0.218
598.05	0.239
598.27	0.272
598.49	0.245
598.71	0.241
598.93	0.223
599.15	0.239
599.37	0.241
599.59	0.231
599.81	0.265
600.03	0.242
600.25	0.234
600.47	0.254
600.69	0.222
600.91	0.264
601.13	0.275
601.35	0.294
601.57	0.285
601.79	0.276
602.01	0.273
602.23	0.300
602.45	0.292
602.67	0.269
602.89	0.298
603.11	0.260
603.33	0.285
603.55	0.298
603.77	0.278
603.99	0.291
604.21	0.332
604.43	0.295
604.65	0.313
604.87	0.303
605.09	0.305
605.31	0.315
605.53	0.309
605.75	0.324
605.97	0.326
606.19	0.329
606.41	0.339
606.63	0.329
606.85	0.321
607.07	0.334
607.29	0.355
607.51	0.327
607.73	0.330
607.95	0.326
608.17	0.333
608.39	0.366
608.61	0.356
608.83	0.387
609.05	0.332
609.27	0.355
609.49	0.369
609.71	0.359
609.93	0.352
610.15	0.347
610.37	0.373
610.59	0.402
610.81	0.393
611.03	0.400
611.24	0.394
611.46	0.385
611.68	0.415
611.90	0.399
612.12	0.394
612.34	0.399
612.56	0.401
612.78	0.410
613.00	0.407
613.22	0.434
613.44	0.449
613.66	0.439
613.88	0.420
614.10	0.431
614.32	0.441
614.54	0.452
614.75	0.453
614.97	0.443
615.19	0.446
615.41	0.459
615.63	0.457
615.85	0.466
616.07	0.460
616.29	0.465
616.51	0.458
616.73	0.456
616.95	0.489
617.17	0.476
617.38	0.469
617.60	0.487
617.82	0.484
618.04	0.494
618.26	0.465
618.48	0.494
618.70	0.482
618.92	0.504
619.14	0.510
619.36	0.517
619.57	0.509
619.79	0.499
620.01	0.552
620.23	0.541
620.45	0.503
620.67	0.489
620.89	0.558
621.11	0.533
621.33	0.551
621.54	0.553
621.76	0.576
621.98	0.570
622.20	0.543
622.42	0.544
622.64	0.563
622.86	0.558
623.07	0.583
623.29	0.592
623.51	0.575
623.73	0.579
623.95	0.552
624.17	0.598
624.39	0.591
624.60	0.621
624.82	0.634
625.04	0.638
625.26	0.640
625.48	0.609
625.70	0.631
625.92	0.612
626.13	0.611
626.35	0.622
626.57	0.607
626.79	0.649
627.01	0.649
627.23	0.662
627.44	0.642
627.66	0.663
627.88	0.684
628.10	0.662
628.32	0.655
628.54	0.690
628.75	0.682
628.97	0.672
629.19	0.700
629.41	0.674
629.63	0.720
629.84	0.695
630.06	0.708
630.28	0.697
630.50	0.701
630.72	0.669
630.94	0.701
631.15	0.724
631.37	0.693
631.59	0.713
631.81	0.739
632.03	0.734
632.24	0.746
632.46	0.746
632.68	0.740
632.90	0.744
633.11	0.782
633.33	0.728
633.55	0.756
633.77	0.750
633.99	0.772
634.20	0.787
634.42	0.766
634.64	0.774
634.86	0.792
635.08	0.778
635.29	0.791
635.51	0.768
635.73	0.794
635.95	0.802
636.16	0.822
636.38	0.811
636.60	0.817
636.82	0.843
637.03	0.841
637.25	0.841
637.47	0.824
637.69	0.833
637.90	0.846
638.12	0.852
638.34	0.864
638.56	0.890
638.77	0.870
638.99	0.858
639.21	0.872
639.43	0.873
639.64	0.871
639.86	0.886
640.08	0.897
640.30	0.903
640.51	0.927
640.73	0.921
640.95	0.904
641.17	0.923
641.38	0.956
641.60	0.943
641.82	0.971
642.03	0.954
642.25	0.960
642.47	0.948
642.69	0.961
642.90	0.960
643.12	0.974
643.34	0.976
643.55	1.002
643.77	1.004
643.99	1.003
644.21	1.017
644.42	1.021
644.64	1.010
644.86	0.987
645.07	1.015
645.29	1.032
645.51	1.017
645.73	1.009
645.94	1.042
646.16	1.058
646.38	1.038
646.59	1.054
646.81	1.053
647.03	1.036
647.24	1.087
647.46	1.091
647.68	1.088
647.89	1.081
648.11	1.085
648.33	1.089
648.54	1.085
648.76	1.115
648.98	1.103
649.19	1.144
649.41	1.156
649.63	1.163
649.84	1.177
650.06	1.134
650.28	1.164
650.49	1.151
650.71	1.165
650.93	1.154
651.14	1.168
651.36	1.185
651.58	1.204
651.79	1.223
652.01	1.226
652.23	1.210
652.44	1.213
652.66	1.238
652.88	1.235
653.09	1.226
653.31	1.222
653.52	1.236
653.74	1.273
653.96	1.265
654.17	1.269
654.39	1.257
654.61	1.289
654.82	1.292
655.04	1.277
655.25	1.338
655.47	1.316
655.69	1.314
655.90	1.328
656.12	1.324
656.34	1.325
656.55	1.377
656.77	1.334
656.98	1.347
657.20	1.351
657.42	1.331
657.63	1.370
657.85	1.373
658.06	1.371
658.28	1.384
658.50	1.360
658.71	1.374
658.93	1.395
659.14	1.417
659.36	1.446
659.58	1.459
659.79	1.446
660.01	1.483
660.22	1.462
660.44	1.457
660.65	1.469
660.87	1.498
661.09	1.496
661.30	1.503
661.52	1.514
661.73	1.501
661.95	1.515
662.16	1.549
662.38	1.512
662.60	1.528
662.81	1.521
663.03	1.563
663.24	1.547
663.46	1.574
663.67	1.571
663.89	1.567
664.11	1.615
664.32	1.614
664.54	1.657
664.75	1.658
664.97	1.664
665.18	1.660
665.40	1.693
665.61	1.714
665.83	1.706
666.04	1.720
666.26	1.752
666.48	1.760
666.69	1.762
666.91	1.766
667.12	1.778
667.34	1.816
667.55	1.839
667.77	1.869
667.98	1.869
668.20	1.895
668.41	1.908
668.63	1.932
668.84	1.958
669.06	1.948
669.27	1.969
669.49	1.987
669.70	1.997
669.92	2.028
670.13	2.045
670.35	2.062
670.56	2.077
670.78	2.078
670.99	2.127
671.21	2.159
671.42	2.126
671.64	2.171
671.85	2.167
672.07	2.186
672.28	2.145
672.50	2.192
672.71	2.237
672.93	2.251
673.14	2.324
673.36	2.325
673.57	2.336
673.79	2.346
674.00	2.365
674.22	2.362
674.43	2.376
674.65	2.387
674.86	2.441
675.08	2.471
675.29	2.503
675.50	2.494
675.72	2.540
675.93	2.547
676.15	2.559
676.36	2.594
676.58	2.621
676.79	2.626
677.01	2.681
677.22	2.680
677.44	2.679
677.65	2.692
677.86	2.731
678.08	2.734
678.29	2.787
678.51	2.799
678.72	2.822
678.94	2.877
679.15	2.842
679.37	2.842
679.58	2.849
679.79	2.861
680.01	2.893
680.22	2.970
680.44	2.914
680.65	2.919
680.87	2.921
681.08	2.935
681.29	2.969
681.51	2.995
681.72	3.000
681.94	2.990
682.15	3.026
682.36	2.993
682.58	3.019
682.79	2.995
683.01	3.009
683.22	3.037
683.43	3.058
683.65	3.078
683.86	3.066
684.08	3.074
684.29	3.059
684.50	3.049
684.72	3.120
684.93	3.155
685.15	3.148
685.36	3.167
685.57	3.176
685.79	3.210
686.00	3.209
686.22	3.204
686.43	3.266
686.64	3.205
686.86	3.241
687.07	3.263
687.28	3.301
687.50	3.356
687.71	3.378
687.93	3.414
688.14	3.432
688.35	3.474
688.57	3.531
688.78	3.562
688.99	3.654
689.21	3.703
689.42	3.756
689.63	3.793
689.85	3.825
690.06	3.887
690.27	3.939
690.49	3.976
690.70	4.050
690.91	4.112
691.13	4.224
691.34	4.310
691.56	4.358
691.77	4.483
691.98	4.561
692.20	4.636
692.41	4.731
692.62	4.867
692.84	4.903
693.05	4.981
693.26	5.051
693.47	5.157
693.69	5.217
693.90	5.242
694.11	5.276
694.33	5.403
694.54	5.427
694.75	5.520
694.97	5.588
695.18	5.620
695.39	5.636
695.61	5.706
695.82	5.702
696.03	5.830
696.25	5.876
696.46	6.022
696.67	6.096
696.88	6.217
697.10	6.396
697.31	6.603
697.52	6.825
697.74	7.133
697.95	7.334
698.16	7.568
698.37	7.827
698.59	7.960
698.80	8.169
699.01	8.426
699.23	8.541
699.44	8.711
699.65	8.779
699.86	8.953
700.08	9.148
700.29	9.334
700.50	9.575
700.71	9.837
700.93	10.054
701.14	10.257
701.35	10.448
701.56	10.637
701.78	10.873
701.99	11.113
702.20	11.245
702.41	11.482
702.63	11.645
702.84	11.773
703.05	11.933
703.26	12.096
703.48	12.270
703.69	12.425
703.90	12.608
704.11	12.803
704.33	12.853
704.54	12.940
704.75	13.074
704.96	13.216
705.18	13.376
705.39	13.482
705.60	13.653
705.81	13.811
706.02	13.906
706.24	14.099
706.45	14.221
706.66	14.342
706.87	14.428
707.09	14.483
707.30	14.635
707.51	14.765
707.72	14.864
707.93	15.013
708.15	15.039
708.36	15.140
708.57	15.149
708.78	15.176
708.99	15.121
709.21	15.287
709.42	15.461
709.63	15.503
709.84	15.557
710.05	15.706
710.27	15.768
710.48	15.817
710.69	15.912
710.90	15.890
711.11	16.034
711.32	16.140
711.54	16.044
711.75	16.056
711.96	16.019
712.17	15.848
712.38	15.864
712.59	15.861
712.81	16.058
713.02	16.208
713.23	16.087
713.44	15.950
713.65	15.872
713.86	15.793
714.08	15.784
714.29	15.889
714.50	15.851
714.71	15.779
714.92	15.776
715.13	15.878
715.34	16.082
715.56	16.285
715.77	16.416
715.98	16.392
716.19	16.267
716.40	16.213
716.61	16.217
716.82	16.253
717.04	16.318
717.25	16.281
717.46	16.212
717.67	16.052
717.88	16.001
718.09	16.050
718.30	16.073
718.51	16.185
718.73	16.228
718.94	16.327
719.15	16.452
719.36	16.399
719.57	16.253
719.78	16.190
719.99	16.198
720.20	16.187
720.41	16.070
720.63	16.116
720.84	16.127
721.05	16.165
721.26	16.137
721.47	16.143
721.68	16.224
721.89	16.118
722.10	15.979
722.31	16.116
722.52	16.032
722.73	16.010
722.95	15.899
723.16	15.900
723.37	15.907
723.58	16.048
723.79	16.085
724.00	16.068
724.21	16.215
724.42	16.170
724.63	16.163
724.84	16.248
725.05	16.278
725.26	16.262
725.47	16.253
725.68	16.029
725.90	15.990
726.11	15.992
726.32	16.011
726.53	15.944
726.74	15.997
726.95	16.009
727.16	16.026
727.37	16.229
727.58	16.295
727.79	16.577
728.00	16.624
728.21	16.717
728.42	16.653
728.63	16.707
728.84	16.893
729.05	16.979
729.26	17.163
729.47	17.363
729.68	17.665
729.89	17.888
730.10	18.024
730.31	17.970
730.52	17.992
730.73	18.006
730.94	18.055
731.15	18.031
731.36	18.076
731.57	18.138
731.78	18.265
731.99	18.456
732.20	18.478
732.41	18.688
732.62	18.740
732.83	18.768
733.04	18.938
733.25	19.056
733.46	19.129
733.67	19.048
733.88	19.240
734.09	19.259
734.30	19.363
734.51	19.384
734.72	19.435
734.93	19.441
735.14	19.620
735.35	19.842
735.56	19.988
735.77	20.012
735.98	20.127
736.19	20.172
736.40	20.177
736.61	20.199
736.82	20.174
737.03	20.198
737.24	20.242
737.45	20.330
737.66	20.324
737.87	20.437
738.08	20.598
738.29	20.818
738.50	21.247
738.71	21.466
738.92	21.655
739.13	21.819
739.34	21.675
739.55	21.768
739.75	21.798
739.96	21.848
740.17	21.994
740.38	22.252
740.59	22.416
740.80	22.389
741.01	22.385
741.22	22.483
741.43	22.706
741.64	22.672
741.85	22.786
742.06	22.962
742.27	22.966
742.48	22.837
742.68	22.782
742.89	22.842
743.10	22.894
743.31	23.125
743.52	23.263
743.73	23.374
743.94	23.436
744.15	23.451
744.36	23.590
744.57	23.756
744.78	23.824
744.98	23.800
745.19	23.949
745.40	24.001
745.61	23.902
745.82	23.829
746.03	23.812
746.24	24.073
746.45	24.097
746.66	24.225
746.86	24.394
747.07	24.443
747.28	24.586
747.49	24.666
747.70	24.671
747.91	24.757
748.12	24.910
748.33	25.171
748.53	25.192
748.74	25.071
748.95	24.934
749.16	25.036
749.37	24.975
749.58	24.846
749.79	24.596
749.99	24.396
750.20	24.302
750.41	24.202
750.62	24.298
750.83	24.563
751.04	24.522
751.25	24.581
751.45	24.729
751.66	24.896
751.87	24.778
752.08	24.541
752.29	24.406
752.50	24.401
752.70	24.500
752.91	24.705
753.12	24.851
753.33	24.844
753.54	24.940
753.75	24.853
753.95	24.794
754.16	24.640
754.37	24.597
754.58	24.831
754.79	24.950
754.99	25.161
755.20	25.011
755.41	24.875
755.62	24.755
755.83	24.886
756.04	24.726
756.24	24.629
756.45	24.530
756.66	24.565
756.87	24.647
757.08	24.632
757.28	24.822
757.49	24.865
757.70	24.901
757.91	24.975
758.11	25.106
758.32	25.173
758.53	25.220
758.74	25.150
758.95	25.077
759.15	25.045
759.36	24.938
759.57	25.055
759.78	24.951
759.98	25.067
760.19	25.095
760.40	25.333
760.61	25.430
760.82	25.326
761.02	25.407
761.23	25.293
761.44	25.168
761.65	24.910
761.85	24.760
762.06	24.721
762.27	24.726
762.48	24.934
762.68	25.172
762.89	25.280
763.10	25.384
763.31	25.688
763.51	25.924
763.72	25.929
763.93	25.965
764.13	26.012
764.34	26.067
764.55	26.275
764.76	26.367
764.96	26.489
765.17	26.516
765.38	26.550
765.59	26.412
765.79	26.696
766.00	26.614
766.21	26.722
766.41	26.689
766.62	26.665
766.83	26.717
767.04	26.638
767.24	26.563
767.45	26.624
767.66	26.677
767.86	26.735
768.07	26.764
768.28	26.800
768.48	26.684
768.69	26.557
768.90	26.389
769.11	26.345
769.31	26.534
769.52	26.462
769.73	26.553
769.93	26.652
770.14	26.767
770.35	26.663
770.55	26.779
770.76	26.692
770.97	26.713
771.17	26.554
771.38	26.616
771.59	26.634
771.79	26.630
772.00	26.737
772.21	26.972
772.41	27.058
772.62	26.740
772.83	26.532
773.03	26.441
773.24	26.436
773.45	26.597
773.65	26.536
773.86	26.530
774.07	26.524
774.27	26.556
774.48	26.432
774.69	26.344
774.89	26.220
775.10	26.272
775.30	26.385
775.51	26.441
775.72	26.349
775.92	26.420
776.13	26.364
776.34	26.557
776.54	26.858
776.75	26.837
776.95	26.562
777.16	26.550
777.37	26.393
777.57	26.375
777.78	26.504
777.99	26.469
778.19	26.482
778.40	26.226
778.60	25.959
778.81	25.626
779.02	25.461
779.22	25.473
779.43	25.481
779.63	25.395
779.84	25.366
780.05	25.354
780.25	25.377
780.46	25.434
780.66	25.415
780.87	25.591
781.08	25.456
781.28	25.560
781.49	25.429
781.69	25.501
781.90	25.508
782.10	25.515
782.31	25.449
782.52	25.841
782.72	25.811
782.93	25.912
783.13	26.050
783.34	26.025
783.54	26.059
783.75	26.028
783.96	25.922
784.16	25.714
784.37	25.535
784.57	25.501
784.78	25.482
784.98	25.587
785.19	25.576
785.39	25.366
785.60	25.281
785.80	25.358
786.01	25.255
786.22	25.031
786.42	24.975
786.63	24.931
786.83	24.958
787.04	24.984
787.24	25.121
787.45	25.315
787.65	25.394
787.86	25.417
788.06	25.461
788.27	25.402
788.47	25.202
788.68	24.942
788.88	24.887
789.09	24.940
789.29	24.852
789.50	24.691
789.70	24.776
789.91	24.986
790.11	24.843
790.32	24.947
790.52	24.876
790.73	24.976
790.93	24.758
791.14	24.629
791.34	24.677
791.55	24.706
791.75	24.558
791.96	24.482
792.16	24.393
792.37	24.442
792.57	24.474
792.78	24.614
792.98	24.821
793.19	24.939
793.39	25.097
793.60	24.811
793.80	24.614
794.01	24.509
794.21	24.481
794.42	24.436
794.62	24.248
794.83	24.461
795.03	24.502
795.24	24.548
795.44	24.407
795.64	24.517
795.85	24.487
796.05	24.376
796.26	24.080
796.46	23.836
796.67	23.756
796.87	23.862
797.08	23.667
797.28	23.616
797.48	23.742
797.69	23.754
797.89	23.729
798.10	23.743
798.30	23.616
798.51	23.499
798.71	23.494
798.91	23.595
799.12	23.598
799.32	23.533
799.53	23.810
799.73	23.924
799.94	23.976
800.14	23.691
800.34	23.546
800.55	23.413
800.75	23.211
800.96	23.002
801.16	22.943
801.36	22.835
801.57	22.747
801.77	22.735
801.98	22.871
802.18	22.993
802.38	23.075
802.59	22.939
802.79	22.841
803.00	22.932
803.20	22.833
803.40	22.706
803.61	22.604
803.81	22.525
804.02	22.289
804.22	22.134
804.42	21.905
804.63	21.786
804.83	21.780
805.03	21.787
805.24	21.702
805.44	21.648
805.65	21.602
805.85	21.431
806.05	21.370
806.26	21.032
806.46	20.689
806.66	20.458
806.87	20.103
807.07	19.938
807.27	19.615
807.48	19.199
807.68	18.883
807.88	18.507
808.09	18.187
808.29	17.936
808.49	17.523
808.70	17.234
808.90	16.941
809.10	16.671
809.31	16.468
809.51	16.372
809.71	16.325
809.92	16.448
810.12	16.558
810.32	16.711
810.53	16.933
810.73	17.215
810.93	17.436
811.14	17.810
811.34	18.141
811.54	18.630
811.75	18.912
811.95	19.591
812.15	20.053
812.36	20.452
812.56	20.843
812.76	21.184
812.96	21.643
813.17	21.890
813.37	22.178
813.57	22.419
813.78	22.643
813.98	23.134
814.18	23.522
814.38	23.777
814.59	24.010
814.79	24.385
814.99	24.728
815.20	24.997
815.40	25.122
815.60	25.532
815.80	25.682
816.01	25.887
816.21	26.056
816.41	26.122
816.62	26.174
816.82	25.972
817.02	25.791
817.22	25.580
817.43	25.211
817.63	24.883
817.83	24.284
818.03	23.958
818.24	23.260
818.44	22.735
818.64	22.037
818.84	21.292
819.05	20.426
819.25	19.730
819.45	18.627
819.65	17.687
819.86	16.779
820.06	15.952
820.26	15.037
820.46	14.264
820.66	13.633
820.87	13.178
821.07	12.805
821.27	12.499
821.47	12.379
821.68	12.452
821.88	12.630
822.08	12.852
822.28	13.120
>>>>>End Spectral Data<<<<<
