OOIBase32 Version 2.0.1.4 Data File
++++++++++++++++++++++++++++++++++++
Date: 11-03-2025, 09:57:37
User: Valued Ocean Optics Customer
Spectrometer Serial Number: HR2B216
Spectrometer Channel: Master
Integration Time (msec): 5
Spectra Averaged: 80
Boxcar Smoothing: 0
Correct for Electrical Dark: Disabled
Time Normalized: Disabled
Dual-beam Reference: Disabled
Reference Channel: Master
Temperature: Not acquired
Spectrometer Type: S2000
ADC Type: HR2000
Number of Pixels in File: 2048
Graph Title: 
>>>>>Begin Spectral Data<<<<<
373.12	0.000
373.35	-1016.704
373.59	-862.443
373.82	-104.544
374.06	-239.280
374.29	-73.471
374.53	-131.371
374.76	-384.619
375.00	-75.000
375.23	-81.035
375.47	-71.952
375.70	-21.552
375.94	-43.529
376.17	-37.180
376.40	-8502.076
376.64	-190.325
376.87	-126.788
377.11	-1137.616
377.34	-225.808
377.58	-437.507
377.81	-357.137
378.05	-257.152
378.28	-49.206
378.52	-92.856
378.75	1739.990
378.99	-136.001
379.22	-88.890
379.45	-6.993
379.69	-42.941
379.92	-17.352
380.16	-40.678
380.39	-16.923
380.63	2.490
380.86	-30.677
381.10	-25.630
381.33	-8.837
381.56	-19.901
381.80	-12.917
382.03	-29.592
382.27	-23.656
382.50	-17.623
382.74	-23.697
382.97	-6.316
383.21	-2.961
383.44	-9.266
383.67	-21.186
383.91	-2.198
384.14	-17.343
384.38	-1.295
384.61	12.782
384.84	-6.050
385.08	-9.774
385.31	-12.371
385.55	-0.641
385.78	-10.039
386.02	-7.600
386.25	-0.987
386.48	13.352
386.72	16.242
386.95	-8.735
387.19	-12.287
387.42	-16.199
387.65	-32.997
387.89	-6.250
388.12	5.247
388.36	9.605
388.59	1.520
388.82	-2.090
389.06	-18.209
389.29	-23.077
389.53	-1.978
389.76	5.172
389.99	-7.377
390.23	0.470
390.46	-8.122
390.70	4.327
390.93	-12.849
391.16	-26.287
391.40	-18.857
391.63	-8.192
391.87	-11.538
392.10	-15.534
392.33	-10.074
392.57	-9.716
392.80	-5.463
393.03	4.575
393.27	4.812
393.50	0.000
393.74	-12.833
393.97	-3.083
394.20	-4.732
394.44	-11.607
394.67	-1.804
394.90	-6.067
395.14	-0.926
395.37	5.525
395.60	-9.655
395.84	-10.625
396.07	-10.448
396.31	1.145
396.54	0.193
396.77	-5.374
397.01	0.988
397.24	-1.739
397.47	-5.527
397.71	-6.209
397.94	-4.310
398.17	1.340
398.41	-6.569
398.64	-7.170
398.87	-3.317
399.11	-4.886
399.34	-10.264
399.57	0.902
399.81	-4.510
400.04	0.452
400.27	-9.823
400.51	0.570
400.74	2.235
400.97	1.416
401.21	3.821
401.44	-6.589
401.67	-11.603
401.91	-17.194
402.14	-6.043
402.37	-9.913
402.61	-5.555
402.84	5.607
403.07	-4.670
403.31	-3.743
403.54	-3.377
403.77	-7.331
404.00	-2.532
404.24	-2.058
404.47	-1.054
404.70	-2.603
404.94	-6.125
405.17	-3.571
405.40	-3.959
405.64	-5.896
405.87	3.185
406.10	-6.129
406.34	-3.413
406.57	-2.826
406.80	-5.292
407.03	-5.185
407.27	-2.802
407.50	2.444
407.73	-0.693
407.97	-1.971
408.20	0.597
408.43	-0.589
408.66	-3.144
408.90	1.848
409.13	5.840
409.36	-2.664
409.60	3.688
409.83	-1.340
410.06	2.053
410.29	-0.368
410.53	0.087
410.76	1.968
410.99	0.172
411.22	-2.840
411.46	-4.325
411.69	1.809
411.92	-6.285
412.16	-5.419
412.39	2.458
412.62	-0.467
412.85	2.099
413.09	-1.668
413.32	-1.849
413.55	-1.737
413.78	-1.135
414.02	-6.502
414.25	-4.470
414.48	-2.541
414.71	1.307
414.95	-2.119
415.18	3.261
415.41	-0.066
415.64	0.135
415.88	-0.678
416.11	-3.364
416.34	-4.109
416.57	-3.400
416.80	-2.660
417.04	0.522
417.27	2.103
417.50	0.975
417.73	1.157
417.97	1.429
418.20	-1.865
418.43	-0.402
418.66	-2.976
418.90	1.216
419.13	-2.408
419.36	-3.354
419.59	-3.787
419.82	-0.500
420.06	-0.619
420.29	-2.298
420.52	-2.728
420.75	-0.101
420.98	-3.376
421.22	-0.994
421.45	-2.918
421.68	-1.825
421.91	-2.156
422.15	0.772
422.38	-0.385
422.61	-1.948
422.84	-0.731
423.07	0.094
423.31	-0.605
423.54	-0.935
423.77	-0.886
424.00	-1.550
424.23	-1.489
424.46	-1.249
424.70	-1.659
424.93	1.870
425.16	-0.898
425.39	0.000
425.62	-1.160
425.86	-0.315
426.09	-0.472
426.32	-1.910
426.55	-1.477
426.78	-0.930
427.01	-2.758
427.25	0.603
427.48	-2.121
427.71	-1.125
427.94	-0.255
428.17	-0.206
428.40	-0.863
428.64	-1.823
428.87	-0.414
429.10	1.213
429.33	0.804
429.56	-1.061
429.79	-1.469
430.03	-1.779
430.26	-0.299
430.49	-1.633
430.72	-1.885
430.95	-1.769
431.18	-0.709
431.42	-0.892
431.65	0.089
431.88	-0.720
432.11	-0.205
432.34	0.363
432.57	-0.587
432.80	-2.738
433.04	-1.418
433.27	0.363
433.50	1.368
433.73	0.462
433.96	-0.323
434.19	0.309
434.42	-1.226
434.65	0.498
434.89	-0.505
435.12	-0.361
435.35	0.482
435.58	0.101
435.81	-1.186
436.04	-0.225
436.27	-0.071
436.50	0.293
436.74	-0.259
436.97	-0.530
437.20	-1.063
437.43	0.047
437.66	-0.136
437.89	-1.014
438.12	-2.122
438.35	-1.786
438.58	-1.269
438.82	-0.535
439.05	-0.272
439.28	0.236
439.51	-0.185
439.74	-0.187
439.97	-0.518
440.20	-0.793
440.43	0.000
440.66	-0.595
440.89	-0.096
441.12	-0.246
441.36	-0.130
441.59	-0.321
441.82	0.122
442.05	-0.054
442.28	-0.910
442.51	0.055
442.74	0.139
442.97	0.312
443.20	-0.163
443.43	-0.123
443.66	-0.115
443.89	-0.662
444.13	-0.548
444.36	-0.618
444.59	0.049
444.82	-0.647
445.05	-0.482
445.28	-0.077
445.51	-0.193
445.74	-0.189
445.97	-0.663
446.20	0.076
446.43	-0.212
446.66	-0.855
446.89	-0.609
447.12	-0.045
447.35	-0.148
447.58	0.384
447.81	1.102
448.05	0.142
448.28	0.419
448.51	1.022
448.74	0.327
448.97	0.014
449.20	-0.370
449.43	-0.393
449.66	-0.737
449.89	0.206
450.12	-0.481
450.35	-0.404
450.58	-0.107
450.81	0.188
451.04	-0.085
451.27	-0.610
451.50	-0.457
451.73	-0.290
451.96	-0.247
452.19	0.139
452.42	0.198
452.65	0.177
452.88	-0.617
453.11	-0.072
453.34	-0.849
453.57	-0.618
453.80	0.123
454.03	-0.710
454.26	0.367
454.49	0.222
454.72	-0.401
454.95	0.355
455.18	-0.089
455.41	0.114
455.64	-0.055
455.87	0.157
456.10	0.142
456.33	0.699
456.56	-0.313
456.79	-0.266
457.02	-0.345
457.25	0.195
457.48	-0.465
457.71	-0.439
457.94	-0.240
458.17	-0.146
458.40	-0.110
458.63	0.020
458.86	0.125
459.09	0.199
459.32	-0.243
459.55	-0.064
459.78	-0.493
460.01	0.387
460.24	0.277
460.47	-0.110
460.70	-0.066
460.93	-0.140
461.16	-0.412
461.39	-0.542
461.62	-0.787
461.85	-0.420
462.08	-0.402
462.31	0.204
462.54	-0.084
462.77	-0.264
463.00	-0.093
463.22	-0.058
463.45	-0.254
463.68	-0.096
463.91	0.070
464.14	-0.094
464.37	-0.545
464.60	0.237
464.83	0.138
465.06	-0.370
465.29	0.037
465.52	-0.081
465.75	-0.015
465.98	0.329
466.21	-0.211
466.44	-0.028
466.67	0.260
466.90	0.061
467.12	-0.212
467.35	-0.332
467.58	-0.286
467.81	0.186
468.04	-0.007
468.27	-0.085
468.50	0.187
468.73	-0.248
468.96	0.284
469.19	-0.259
469.42	-0.093
469.65	-0.579
469.87	-0.368
470.10	0.102
470.33	-0.210
470.56	0.017
470.79	-0.382
471.02	-0.074
471.25	-0.005
471.48	-0.166
471.71	-0.074
471.94	-0.075
472.17	-0.274
472.39	-0.051
472.62	0.185
472.85	0.306
473.08	-0.111
473.31	-0.240
473.54	-0.121
473.77	0.173
474.00	0.135
474.23	0.076
474.45	-0.133
474.68	-0.255
474.91	-0.231
475.14	-0.139
475.37	-0.184
475.60	-0.093
475.83	-0.061
476.06	-0.285
476.28	-0.102
476.51	-0.210
476.74	-0.067
476.97	0.033
477.20	-0.127
477.43	0.016
477.66	-0.065
477.88	-0.172
478.11	0.023
478.34	0.050
478.57	-0.030
478.80	-0.088
479.03	-0.083
479.26	-0.286
479.48	0.103
479.71	-0.227
479.94	-0.036
480.17	-0.011
480.40	-0.131
480.63	-0.108
480.86	-0.196
481.08	-0.114
481.31	0.115
481.54	0.047
481.77	-0.102
482.00	-0.097
482.23	-0.197
482.45	-0.068
482.68	-0.068
482.91	-0.160
483.14	-0.148
483.37	0.009
483.60	-0.188
483.82	-0.056
484.05	-0.119
484.28	-0.114
484.51	-0.164
484.74	-0.096
484.96	0.012
485.19	0.012
485.42	-0.026
485.65	-0.063
485.88	-0.144
486.10	-0.121
486.33	-0.114
486.56	-0.003
486.79	-0.014
487.02	-0.073
487.25	-0.200
487.47	-0.208
487.70	-0.029
487.93	-0.016
488.16	-0.050
488.39	-0.164
488.61	-0.013
488.84	-0.015
489.07	-0.041
489.30	-0.017
489.52	-0.045
489.75	-0.151
489.98	0.010
490.21	-0.002
490.44	-0.051
490.66	-0.106
490.89	-0.058
491.12	-0.024
491.35	-0.021
491.57	-0.093
491.80	-0.179
492.03	-0.123
492.26	-0.039
492.49	-0.086
492.71	0.081
492.94	-0.016
493.17	-0.060
493.40	-0.170
493.62	-0.131
493.85	-0.085
494.08	-0.013
494.31	0.011
494.53	-0.086
494.76	-0.049
494.99	0.101
495.22	-0.156
495.44	-0.044
495.67	-0.033
495.90	-0.051
496.13	-0.014
496.35	-0.096
496.58	-0.016
496.81	-0.119
497.04	-0.116
497.26	-0.097
497.49	-0.075
497.72	-0.012
497.95	-0.008
498.17	-0.112
498.40	-0.010
498.63	0.021
498.85	0.034
499.08	-0.079
499.31	0.030
499.54	-0.046
499.76	-0.075
499.99	-0.067
500.22	-0.098
500.44	-0.206
500.67	-0.181
500.90	-0.071
501.13	-0.011
501.35	0.002
501.58	-0.021
501.81	0.007
502.03	-0.003
502.26	-0.053
502.49	-0.063
502.72	-0.044
502.94	-0.035
503.17	0.000
503.40	0.032
503.62	-0.115
503.85	-0.046
504.08	0.007
504.30	-0.026
504.53	-0.078
504.76	-0.063
504.98	-0.058
505.21	-0.110
505.44	-0.031
505.67	0.148
505.89	0.041
506.12	-0.041
506.35	-0.045
506.57	-0.092
506.80	-0.051
507.03	-0.111
507.25	-0.102
507.48	-0.035
507.71	-0.011
507.93	-0.026
508.16	-0.051
508.39	-0.040
508.61	-0.043
508.84	-0.015
509.07	-0.027
509.29	-0.053
509.52	-0.076
509.75	-0.063
509.97	-0.004
510.20	0.030
510.43	-0.085
510.65	0.034
510.88	-0.080
511.10	0.016
511.33	-0.023
511.56	-0.079
511.78	0.017
512.01	-0.038
512.24	0.045
512.46	-0.003
512.69	0.052
512.92	0.018
513.14	-0.046
513.37	-0.081
513.59	-0.050
513.82	0.008
514.05	-0.007
514.27	-0.025
514.50	-0.106
514.73	-0.090
514.95	-0.034
515.18	0.022
515.40	0.004
515.63	0.032
515.86	-0.042
516.08	-0.056
516.31	-0.090
516.54	0.015
516.76	-0.024
516.99	0.064
517.21	0.027
517.44	-0.018
517.67	-0.001
517.89	-0.008
518.12	-0.010
518.34	-0.052
518.57	-0.005
518.80	-0.049
519.02	-0.009
519.25	-0.029
519.47	-0.045
519.70	-0.055
519.93	-0.042
520.15	0.063
520.38	0.037
520.60	0.028
520.83	-0.013
521.05	0.005
521.28	0.007
521.51	-0.021
521.73	0.034
521.96	-0.008
522.18	-0.035
522.41	0.030
522.63	-0.045
522.86	-0.073
523.09	0.001
523.31	0.049
523.54	-0.008
523.76	0.029
523.99	-0.024
524.21	-0.016
524.44	0.044
524.67	-0.015
524.89	-0.032
525.12	-0.014
525.34	-0.047
525.57	-0.050
525.79	-0.066
526.02	-0.074
526.24	-0.047
526.47	-0.034
526.69	-0.044
526.92	-0.055
527.15	0.031
527.37	0.023
527.60	-0.014
527.82	0.023
528.05	-0.004
528.27	-0.020
528.50	-0.023
528.72	-0.026
528.95	-0.024
529.17	-0.002
529.40	-0.041
529.62	-0.005
529.85	-0.021
530.07	-0.032
530.30	-0.001
530.52	-0.016
530.75	-0.012
530.98	0.000
531.20	0.036
531.43	-0.065
531.65	-0.047
531.88	-0.003
532.10	-0.073
532.33	-0.044
532.55	0.006
532.78	-0.010
533.00	0.004
533.23	-0.079
533.45	0.025
533.68	0.026
533.90	-0.019
534.13	-0.034
534.35	-0.021
534.58	-0.011
534.80	-0.011
535.03	-0.032
535.25	-0.003
535.47	-0.018
535.70	-0.008
535.92	0.009
536.15	-0.014
536.37	-0.013
536.60	0.019
536.82	-0.009
537.05	-0.064
537.27	-0.017
537.50	-0.028
537.72	-0.057
537.95	-0.031
538.17	0.037
538.40	0.001
538.62	-0.008
538.85	0.006
539.07	-0.032
539.29	-0.019
539.52	0.024
539.74	-0.044
539.97	-0.034
540.19	-0.020
540.42	-0.026
540.64	-0.058
540.87	-0.013
541.09	-0.004
541.32	-0.022
541.54	-0.025
541.76	-0.026
541.99	-0.024
542.21	-0.016
542.44	0.010
542.66	-0.024
542.89	-0.022
543.11	-0.013
543.33	-0.013
543.56	-0.015
543.78	-0.032
544.01	0.005
544.23	-0.011
544.46	-0.014
544.68	0.008
544.90	-0.003
545.13	-0.007
545.35	0.021
545.58	0.002
545.80	0.023
546.03	0.022
546.25	-0.040
546.47	0.009
546.70	-0.008
546.92	0.006
547.15	-0.024
547.37	-0.034
547.59	0.024
547.82	0.048
548.04	0.033
548.27	-0.017
548.49	0.031
548.71	-0.039
548.94	0.007
549.16	0.002
549.39	-0.013
549.61	-0.001
549.83	-0.020
550.06	-0.003
550.28	0.009
550.50	-0.010
550.73	-0.013
550.95	0.001
551.18	-0.008
551.40	-0.015
551.62	-0.003
551.85	-0.030
552.07	-0.030
552.29	0.016
552.52	0.011
552.74	0.003
552.97	-0.017
553.19	0.019
553.41	-0.010
553.64	-0.006
553.86	-0.023
554.08	-0.004
554.31	-0.034
554.53	-0.054
554.75	-0.038
554.98	-0.023
555.20	0.024
555.42	0.022
555.65	-0.017
555.87	-0.051
556.10	0.036
556.32	0.006
556.54	-0.031
556.77	-0.005
556.99	-0.014
557.21	-0.053
557.44	-0.034
557.66	-0.016
557.88	0.028
558.11	0.012
558.33	0.017
558.55	-0.014
558.78	-0.050
559.00	-0.013
559.22	-0.011
559.44	0.001
559.67	-0.009
559.89	0.003
560.11	-0.015
560.34	-0.024
560.56	0.017
560.78	0.005
561.01	0.013
561.23	-0.029
561.45	-0.001
561.68	-0.044
561.90	-0.009
562.12	-0.048
562.35	0.003
562.57	0.023
562.79	0.019
563.01	0.001
563.24	0.010
563.46	-0.001
563.68	0.010
563.91	0.023
564.13	0.010
564.35	0.011
564.57	0.017
564.80	0.020
565.02	-0.019
565.24	-0.032
565.47	0.026
565.69	0.041
565.91	-0.009
566.13	0.051
566.36	0.026
566.58	0.022
566.80	0.001
567.02	0.010
567.25	0.011
567.47	0.049
567.69	0.007
567.92	-0.020
568.14	-0.001
568.36	0.015
568.58	0.013
568.81	0.015
569.03	-0.007
569.25	-0.023
569.47	0.020
569.70	0.007
569.92	0.041
570.14	0.034
570.36	0.000
570.59	0.031
570.81	0.037
571.03	-0.024
571.25	0.012
571.47	-0.002
571.70	0.029
571.92	-0.003
572.14	0.004
572.36	0.009
572.59	-0.019
572.81	0.014
573.03	-0.004
573.25	-0.014
573.48	0.009
573.70	-0.010
573.92	0.025
574.14	-0.001
574.36	-0.001
574.59	-0.004
574.81	-0.012
575.03	0.001
575.25	0.008
575.47	0.042
575.70	0.017
575.92	-0.020
576.14	-0.016
576.36	0.029
576.59	0.009
576.81	-0.009
577.03	-0.001
577.25	-0.005
577.47	0.022
577.69	0.006
577.92	-0.015
578.14	0.037
578.36	0.018
578.58	0.023
578.80	0.018
579.03	0.025
579.25	0.014
579.47	0.026
579.69	-0.012
579.91	0.026
580.14	-0.009
580.36	0.023
580.58	0.020
580.80	0.013
581.02	-0.002
581.24	0.008
581.47	0.020
581.69	0.013
581.91	0.002
582.13	0.018
582.35	0.024
582.57	0.012
582.79	-0.009
583.02	0.012
583.24	0.004
583.46	0.021
583.68	0.022
583.90	-0.004
584.12	0.014
584.35	0.021
584.57	0.003
584.79	-0.002
585.01	-0.001
585.23	-0.035
585.45	0.017
585.67	0.025
585.90	-0.003
586.12	0.022
586.34	0.018
586.56	0.006
586.78	0.027
587.00	0.033
587.22	0.015
587.44	0.023
587.67	0.029
587.89	0.022
588.11	-0.004
588.33	0.030
588.55	0.013
588.77	0.013
588.99	0.015
589.21	-0.009
589.43	0.025
589.66	0.021
589.88	0.033
590.10	0.008
590.32	-0.008
590.54	0.008
590.76	0.027
590.98	-0.002
591.20	0.004
591.42	0.039
591.64	-0.017
591.87	0.011
592.09	0.022
592.31	0.031
592.53	0.015
592.75	0.002
592.97	0.022
593.19	0.014
593.41	0.023
593.63	-0.017
593.85	0.028
594.07	-0.001
594.29	0.010
594.52	0.021
594.74	0.018
594.96	0.026
595.18	0.026
595.40	0.001
595.62	0.037
595.84	0.019
596.06	0.022
596.28	0.008
596.50	0.006
596.72	0.021
596.94	0.027
597.16	0.025
597.38	0.016
597.60	0.049
597.82	0.047
598.05	0.028
598.27	0.013
598.49	0.009
598.71	0.033
598.93	0.044
599.15	0.038
599.37	0.041
599.59	0.028
599.81	0.041
600.03	0.030
600.25	0.019
600.47	0.049
600.69	0.053
600.91	0.031
601.13	0.020
601.35	0.054
601.57	0.071
601.79	0.034
602.01	0.036
602.23	0.037
602.45	0.053
602.67	0.048
602.89	0.097
603.11	0.077
603.33	0.084
603.55	0.087
603.77	0.093
603.99	0.154
604.21	0.150
604.43	0.200
604.65	0.223
604.87	0.236
605.09	0.282
605.31	0.327
605.53	0.389
605.75	0.433
605.97	0.480
606.19	0.535
606.41	0.634
606.63	0.699
606.85	0.784
607.07	0.900
607.29	1.001
607.51	1.105
607.73	1.213
607.95	1.315
608.17	1.499
608.39	1.640
608.61	1.726
608.83	1.857
609.05	2.060
609.27	2.221
609.49	2.395
609.71	2.537
609.93	2.730
610.15	2.950
610.37	3.102
610.59	3.341
610.81	3.491
611.03	3.659
611.24	3.863
611.46	4.068
611.68	4.290
611.90	4.519
612.12	4.672
612.34	4.923
612.56	5.106
612.78	5.349
613.00	5.552
613.22	5.790
613.44	5.997
613.66	6.189
613.88	6.457
614.10	6.660
614.32	6.858
614.54	7.093
614.75	7.300
614.97	7.488
615.19	7.673
615.41	7.861
615.63	8.068
615.85	8.230
616.07	8.397
616.29	8.589
616.51	8.802
616.73	8.987
616.95	9.236
617.17	9.386
617.38	9.550
617.60	9.743
617.82	9.926
618.04	10.116
618.26	10.357
618.48	10.545
618.70	10.790
618.92	10.933
619.14	11.080
619.36	11.242
619.57	11.290
619.79	11.483
620.01	11.717
620.23	11.818
620.45	11.946
620.67	12.016
620.89	12.150
621.11	12.296
621.33	12.510
621.54	12.635
621.76	12.762
621.98	12.859
622.20	12.938
622.42	12.991
622.64	13.143
622.86	13.316
623.07	13.504
623.29	13.666
623.51	13.780
623.73	13.842
623.95	13.855
624.17	13.953
624.39	14.049
624.60	14.139
624.82	14.237
625.04	14.362
625.26	14.548
625.48	14.738
625.70	14.863
625.92	14.943
626.13	15.021
626.35	15.109
626.57	15.283
626.79	15.430
627.01	15.560
627.23	15.652
627.44	15.808
627.66	15.830
627.88	15.865
628.10	15.939
628.32	15.968
628.54	16.023
628.75	16.141
628.97	16.232
629.19	16.525
629.41	16.541
629.63	16.571
629.84	16.716
630.06	16.759
630.28	16.870
630.50	16.959
630.72	17.104
630.94	17.170
631.15	17.262
631.37	17.301
631.59	17.310
631.81	17.399
632.03	17.460
632.24	17.542
632.46	17.620
632.68	17.740
632.90	17.950
633.11	18.103
633.33	18.220
633.55	18.258
633.77	18.259
633.99	18.244
634.20	18.399
634.42	18.596
634.64	18.631
634.86	18.681
635.08	18.790
635.29	18.879
635.51	18.987
635.73	19.016
635.95	19.029
636.16	19.058
636.38	19.154
636.60	19.231
636.82	19.331
637.03	19.428
637.25	19.400
637.47	19.345
637.69	19.394
637.90	19.441
638.12	19.560
638.34	19.670
638.56	19.751
638.77	19.765
638.99	19.828
639.21	19.968
639.43	20.061
639.64	20.183
639.86	20.355
640.08	20.508
640.30	20.515
640.51	20.653
640.73	20.737
640.95	20.774
641.17	20.952
641.38	21.156
641.60	21.146
641.82	21.293
642.03	21.325
642.25	21.296
642.47	21.260
642.69	21.290
642.90	21.307
643.12	21.351
643.34	21.513
643.55	21.619
643.77	21.791
643.99	22.011
644.21	22.050
644.42	22.048
644.64	21.956
644.86	21.853
645.07	21.926
645.29	21.945
645.51	22.118
645.73	22.200
645.94	22.381
646.16	22.471
646.38	22.427
646.59	22.473
646.81	22.580
647.03	22.670
647.24	22.744
647.46	22.858
647.68	22.793
647.89	22.842
648.11	23.000
648.33	23.147
648.54	23.369
648.76	23.502
648.98	23.634
649.19	23.806
649.41	23.800
649.63	23.758
649.84	23.725
650.06	23.720
650.28	23.697
650.49	23.820
650.71	23.852
650.93	23.938
651.14	24.078
651.36	24.107
651.58	24.185
651.79	24.278
652.01	24.217
652.23	24.395
652.44	24.498
652.66	24.653
652.88	24.789
653.09	24.875
653.31	24.832
653.52	24.874
653.74	25.030
653.96	25.298
654.17	25.369
654.39	25.565
654.61	25.764
654.82	25.783
655.04	25.730
655.25	25.679
655.47	25.645
655.69	25.580
655.90	25.666
656.12	25.668
656.34	25.837
656.55	25.980
656.77	25.947
656.98	26.021
657.20	26.069
657.42	26.212
657.63	26.287
657.85	26.351
658.06	26.444
658.28	26.574
658.50	26.544
658.71	26.582
658.93	26.554
659.14	26.671
659.36	26.844
659.58	26.891
659.79	26.947
660.01	26.936
660.22	26.902
660.44	26.959
660.65	26.990
660.87	27.056
661.09	27.294
661.30	27.461
661.52	27.580
661.73	27.677
661.95	27.749
662.16	27.643
662.38	27.755
662.60	27.719
662.81	27.878
663.03	28.061
663.24	28.183
663.46	28.406
663.67	28.596
663.89	28.584
664.11	28.602
664.32	28.624
664.54	28.605
664.75	28.479
664.97	28.551
665.18	28.778
665.40	28.764
665.61	28.703
665.83	28.673
666.04	28.757
666.26	28.911
666.48	29.157
666.69	29.417
666.91	29.515
667.12	29.575
667.34	29.678
667.55	29.645
667.77	29.595
667.98	29.635
668.20	29.748
668.41	29.881
668.63	30.079
668.84	30.194
669.06	30.214
669.27	30.356
669.49	30.486
669.70	30.490
669.92	30.465
670.13	30.476
670.35	30.540
670.56	30.649
670.78	30.697
670.99	30.657
671.21	30.681
671.42	30.776
671.64	30.908
671.85	30.968
672.07	30.975
672.28	30.762
672.50	30.553
672.71	30.566
672.93	30.792
673.14	30.968
673.36	31.059
673.57	31.225
673.79	31.262
674.00	31.335
674.22	31.613
674.43	31.556
674.65	31.689
674.86	31.799
675.08	31.769
675.29	31.677
675.50	31.689
675.72	31.853
675.93	31.776
676.15	31.778
676.36	31.690
676.58	31.787
676.79	32.040
677.01	32.174
677.22	32.203
677.44	32.237
677.65	32.493
677.86	32.726
678.08	32.966
678.29	33.162
678.51	33.313
678.72	33.404
678.94	33.429
679.15	33.380
679.37	33.413
679.58	33.614
679.79	33.669
680.01	33.543
680.22	33.412
680.44	33.300
680.65	33.233
680.87	33.206
681.08	33.303
681.29	33.435
681.51	33.524
681.72	33.822
681.94	34.035
682.15	34.085
682.36	34.266
682.58	34.350
682.79	34.389
683.01	34.442
683.22	34.360
683.43	34.467
683.65	34.732
683.86	34.592
684.08	34.544
684.29	34.645
684.50	34.761
684.72	34.807
684.93	34.905
685.15	34.990
685.36	35.198
685.57	35.357
685.79	35.445
686.00	35.548
686.22	35.517
686.43	35.331
686.64	35.234
686.86	35.231
687.07	35.223
687.28	35.320
687.50	35.465
687.71	35.573
687.93	35.698
688.14	35.852
688.35	35.851
688.57	36.010
688.78	36.023
688.99	36.032
689.21	36.186
689.42	36.390
689.63	36.412
689.85	36.677
690.06	36.663
690.27	36.611
690.49	36.574
690.70	36.636
690.91	36.604
691.13	36.513
691.34	36.664
691.56	36.829
691.77	36.992
691.98	36.932
692.20	36.995
692.41	37.158
692.62	37.343
692.84	37.665
693.05	37.847
693.26	37.872
693.47	37.937
693.69	37.783
693.90	37.606
694.11	37.711
694.33	37.780
694.54	37.874
694.75	38.039
694.97	38.189
695.18	38.305
695.39	38.303
695.61	38.409
695.82	38.318
696.03	38.214
696.25	38.167
696.46	38.208
696.67	38.151
696.88	38.165
697.10	38.298
697.31	38.348
697.52	38.448
697.74	38.540
697.95	38.813
698.16	38.879
698.37	39.175
698.59	39.206
698.80	39.148
699.01	39.058
699.23	38.996
699.44	38.980
699.65	38.977
699.86	39.034
700.08	39.200
700.29	39.321
700.50	39.288
700.71	39.410
700.93	39.438
701.14	39.564
701.35	39.609
701.56	39.521
701.78	39.599
701.99	39.587
702.20	39.798
702.41	39.945
702.63	39.987
702.84	39.808
703.05	39.648
703.26	39.688
703.48	39.721
703.69	39.918
703.90	40.009
704.11	40.056
704.33	40.499
704.54	40.660
704.75	40.783
704.96	40.901
705.18	41.068
705.39	40.908
705.60	40.857
705.81	40.896
706.02	40.756
706.24	40.635
706.45	40.537
706.66	40.789
706.87	40.960
707.09	41.407
707.30	41.530
707.51	41.812
707.72	41.765
707.93	41.635
708.15	41.756
708.36	41.788
708.57	41.676
708.78	41.726
708.99	41.750
709.21	41.980
709.42	42.130
709.63	42.243
709.84	42.230
710.05	42.097
710.27	42.032
710.48	41.908
710.69	41.958
710.90	41.815
711.11	41.854
711.32	42.139
711.54	42.201
711.75	42.501
711.96	42.882
712.17	43.054
712.38	43.252
712.59	43.048
712.81	42.894
713.02	42.782
713.23	42.967
713.44	43.179
713.65	43.292
713.86	43.526
714.08	43.577
714.29	43.674
714.50	43.589
714.71	43.518
714.92	43.585
715.13	43.596
715.34	43.454
715.56	43.247
715.77	43.380
715.98	43.370
716.19	43.373
716.40	43.392
716.61	43.708
716.82	43.916
717.04	44.064
717.25	44.113
717.46	44.220
717.67	44.212
717.88	44.254
718.09	44.093
718.30	44.176
718.51	44.283
718.73	44.200
718.94	44.105
719.15	44.158
719.36	44.241
719.57	44.358
719.78	44.679
719.99	44.797
720.20	44.956
720.41	45.101
720.63	45.056
720.84	45.068
721.05	45.107
721.26	45.093
721.47	44.834
721.68	44.802
721.89	44.789
722.10	45.006
722.31	45.284
722.52	45.063
722.73	44.954
722.95	45.224
723.16	45.394
723.37	45.560
723.58	45.683
723.79	45.831
724.00	45.972
724.21	45.854
724.42	45.756
724.63	45.494
724.84	45.690
725.05	45.665
725.26	45.696
725.47	45.716
725.68	45.845
725.90	45.798
726.11	45.751
726.32	45.836
726.53	46.016
726.74	45.978
726.95	45.896
727.16	45.873
727.37	46.088
727.58	46.276
727.79	46.212
728.00	46.300
728.21	46.422
728.42	46.631
728.63	46.622
728.84	46.740
729.05	46.927
729.26	47.394
729.47	47.391
729.68	47.196
729.89	47.167
730.10	47.356
730.31	47.601
730.52	47.546
730.73	47.599
730.94	47.574
731.15	47.282
731.36	47.270
731.57	47.414
731.78	47.436
731.99	47.664
732.20	47.603
732.41	47.724
732.62	47.674
732.83	47.637
733.04	47.833
733.25	47.961
733.46	48.030
733.67	48.138
733.88	48.423
734.09	48.528
734.30	48.524
734.51	48.801
734.72	48.998
734.93	48.673
735.14	48.453
735.35	48.499
735.56	48.553
735.77	48.756
735.98	48.798
736.19	48.602
736.40	48.495
736.61	48.611
736.82	48.856
737.03	48.960
737.24	48.927
737.45	48.702
737.66	48.757
737.87	49.014
738.08	49.042
738.29	49.369
738.50	49.463
738.71	49.493
738.92	49.431
739.13	49.608
739.34	49.704
739.55	49.818
739.75	49.877
739.96	49.887
740.17	49.641
740.38	49.886
740.59	50.028
740.80	50.102
741.01	50.083
741.22	50.422
741.43	50.417
741.64	50.495
741.85	50.393
742.06	50.287
742.27	50.126
742.48	50.145
742.68	50.233
742.89	50.113
743.10	50.256
743.31	50.333
743.52	50.326
743.73	50.291
743.94	50.146
744.15	50.310
744.36	50.486
744.57	50.209
744.78	50.293
744.98	50.510
745.19	50.907
745.40	51.183
745.61	51.485
745.82	51.848
746.03	51.693
746.24	51.704
746.45	51.707
746.66	51.561
746.86	51.619
747.07	51.928
747.28	52.368
747.49	52.418
747.70	52.665
747.91	52.572
748.12	52.596
748.33	52.080
748.53	51.775
748.74	51.480
748.95	51.355
749.16	51.641
749.37	51.747
749.58	51.867
749.79	51.768
749.99	51.906
750.20	52.147
750.41	52.275
750.62	52.368
750.83	52.445
751.04	52.392
751.25	52.458
751.45	52.287
751.66	52.333
751.87	52.275
752.08	51.790
752.29	51.720
752.50	51.281
752.70	51.460
752.91	51.727
753.12	52.303
753.33	52.735
753.54	53.006
753.75	53.120
753.95	52.685
754.16	52.548
754.37	52.642
754.58	52.907
754.79	52.812
754.99	52.651
755.20	52.620
755.41	52.564
755.62	52.452
755.83	52.629
756.04	52.908
756.24	53.041
756.45	53.148
756.66	53.457
756.87	53.418
757.08	53.358
757.28	53.161
757.49	53.314
757.70	53.066
757.91	53.031
758.11	52.958
758.32	53.330
758.53	53.554
758.74	53.776
758.95	53.804
759.15	53.846
759.36	53.884
759.57	53.850
759.78	53.838
759.98	53.477
760.19	53.383
760.40	53.695
760.61	54.059
760.82	54.258
761.02	54.387
761.23	54.621
761.44	54.821
761.65	54.969
761.85	54.705
762.06	54.598
762.27	54.577
762.48	54.519
762.68	54.590
762.89	54.887
763.10	54.885
763.31	54.850
763.51	54.605
763.72	54.870
763.93	55.094
764.13	55.228
764.34	55.302
764.55	55.162
764.76	55.229
764.96	55.099
765.17	55.179
765.38	55.274
765.59	55.368
765.79	55.695
766.00	55.817
766.21	55.797
766.41	55.743
766.62	55.667
766.83	55.554
767.04	55.478
767.24	55.581
767.45	55.634
767.66	55.883
767.86	55.998
768.07	55.823
768.28	55.926
768.48	55.872
768.69	56.048
768.90	55.856
769.11	55.714
769.31	55.461
769.52	55.147
769.73	55.027
769.93	55.158
770.14	55.643
770.35	55.704
770.55	56.000
770.76	56.443
770.97	56.552
771.17	56.570
771.38	56.368
771.59	56.090
771.79	55.782
772.00	55.625
772.21	55.541
772.41	55.915
772.62	56.231
772.83	56.121
773.03	56.195
773.24	56.256
773.45	56.113
773.65	56.320
773.86	56.541
774.07	56.718
774.27	56.769
774.48	56.631
774.69	56.945
774.89	56.998
775.10	57.171
775.30	57.019
775.51	56.791
775.72	56.861
775.92	56.854
776.13	56.881
776.34	56.822
776.54	56.736
776.75	57.024
776.95	57.188
777.16	57.166
777.37	57.412
777.57	57.498
777.78	57.403
777.99	57.458
778.19	57.400
778.40	57.090
778.60	56.778
778.81	56.759
779.02	56.662
779.22	56.675
779.43	56.864
779.63	57.091
779.84	57.076
780.05	57.327
780.25	57.573
780.46	57.521
780.66	57.638
780.87	57.702
781.08	57.765
781.28	57.721
781.49	57.665
781.69	57.901
781.90	58.231
782.10	58.434
782.31	58.646
782.52	58.613
782.72	58.675
782.93	58.630
783.13	59.078
783.34	58.789
783.54	58.499
783.75	58.674
783.96	58.607
784.16	58.842
784.37	58.709
784.57	58.813
784.78	58.730
784.98	58.684
785.19	58.627
785.39	58.408
785.60	58.328
785.80	58.315
786.01	58.347
786.22	58.664
786.42	58.944
786.63	58.860
786.83	58.603
787.04	58.594
787.24	58.645
787.45	58.556
787.65	59.173
787.86	59.377
788.06	59.495
788.27	59.454
788.47	59.468
788.68	59.501
788.88	59.297
789.09	59.193
789.29	59.305
789.50	59.313
789.70	59.258
789.91	59.423
790.11	59.279
790.32	59.401
790.52	59.338
790.73	59.268
790.93	59.315
791.14	59.723
791.34	59.666
791.55	59.742
791.75	59.579
791.96	59.585
792.16	59.667
792.37	59.616
792.57	59.469
792.78	59.484
792.98	59.810
793.19	59.798
793.39	60.040
793.60	60.571
793.80	60.546
794.01	60.416
794.21	60.650
794.42	60.414
794.62	60.304
794.83	60.247
795.03	60.205
795.24	60.220
795.44	60.098
795.64	60.265
795.85	60.637
796.05	60.778
796.26	60.829
796.46	61.079
796.67	61.454
796.87	61.522
797.08	61.767
797.28	61.722
797.48	61.865
797.69	61.907
797.89	61.758
798.10	61.826
798.30	61.914
798.51	61.568
798.71	61.488
798.91	61.472
799.12	61.695
799.32	61.585
799.53	61.590
799.73	61.573
799.94	61.623
800.14	61.612
800.34	61.386
800.55	61.272
800.75	61.119
800.96	61.629
801.16	61.270
801.36	61.554
801.57	61.578
801.77	61.721
801.98	61.861
802.18	62.328
802.38	62.031
802.59	62.205
802.79	62.238
803.00	62.087
803.20	61.902
803.40	61.958
803.61	61.856
803.81	61.807
804.02	61.712
804.22	62.187
804.42	62.031
804.63	62.121
804.83	61.967
805.03	61.601
805.24	61.586
805.44	61.491
805.65	61.470
805.85	61.211
806.05	61.291
806.26	61.064
806.46	61.099
806.66	60.757
806.87	60.830
807.07	60.968
807.27	61.361
807.48	61.623
807.68	61.920
807.88	61.851
808.09	61.834
808.29	61.991
808.49	61.889
808.70	61.622
808.90	61.531
809.10	61.256
809.31	61.060
809.51	60.537
809.71	60.434
809.92	60.668
810.12	60.630
810.32	61.080
810.53	61.355
810.73	61.505
810.93	62.232
811.14	62.566
811.34	63.067
811.54	63.471
811.75	63.600
811.95	63.976
812.15	63.550
812.36	63.272
812.56	63.765
812.76	63.981
812.96	64.015
813.17	63.859
813.37	63.912
813.57	63.606
813.78	63.572
813.98	63.289
814.18	62.799
814.38	63.008
814.59	62.806
814.79	62.977
814.99	63.263
815.20	64.011
815.40	64.282
815.60	64.630
815.80	64.295
816.01	64.432
816.21	64.471
816.41	64.269
816.62	63.938
816.82	63.323
817.02	62.941
817.22	62.974
817.43	62.691
817.63	62.840
817.83	62.866
818.03	62.878
818.24	62.883
818.44	62.659
818.64	62.638
818.84	62.960
819.05	63.265
819.25	63.080
819.45	63.533
819.65	63.572
819.86	63.800
820.06	63.677
820.26	63.651
820.46	63.680
820.66	63.583
820.87	63.642
821.07	63.602
821.27	63.743
821.47	63.729
821.68	63.798
821.88	63.831
822.08	64.236
822.28	64.671
>>>>>End Spectral Data<<<<<
