OOIBase32 Version 2.0.1.4 Data File
++++++++++++++++++++++++++++++++++++
Date: 11-03-2025, 09:55:27
User: Valued Ocean Optics Customer
Spectrometer Serial Number: HR2B216
Spectrometer Channel: Master
Integration Time (msec): 5
Spectra Averaged: 80
Boxcar Smoothing: 0
Correct for Electrical Dark: Disabled
Time Normalized: Disabled
Dual-beam Reference: Disabled
Reference Channel: Master
Temperature: Not acquired
Spectrometer Type: S2000
ADC Type: HR2000
Number of Pixels in File: 2048
Graph Title: 
>>>>>Begin Spectral Data<<<<<
373.12	0.000
373.35	-983.377
373.59	-637.458
373.82	-240.907
374.06	-253.566
374.29	-122.450
374.53	-96.077
374.76	-530.776
375.00	-174.998
375.23	-39.655
375.47	-47.562
375.70	9.483
375.94	-3.529
376.17	-93.591
376.40	-12303.053
376.64	-183.875
376.87	-107.143
377.11	-1325.134
377.34	19.354
377.58	-381.254
377.81	-235.714
378.05	-250.007
378.28	-20.634
378.52	-104.761
378.75	1780.005
378.99	-312.002
379.22	-72.222
379.45	-19.580
379.69	-12.941
379.92	-19.178
380.16	-37.853
380.39	4.102
380.63	30.706
380.86	-18.725
381.10	-9.243
381.33	-0.465
381.56	3.980
381.80	-2.500
382.03	-24.490
382.27	-41.398
382.50	-14.754
382.74	-31.754
382.97	-15.088
383.21	3.947
383.44	13.514
383.67	10.170
383.91	2.564
384.14	5.904
384.38	-7.120
384.61	-6.015
384.84	-4.982
385.08	-13.158
385.31	-14.089
385.55	-4.167
385.78	-10.039
386.02	-8.800
386.25	2.302
386.48	1.704
386.72	6.051
386.95	2.410
387.19	-5.119
387.42	-4.361
387.65	-24.579
387.89	1.902
388.12	-3.395
388.36	3.672
388.59	11.246
388.82	-0.298
389.06	-1.791
389.29	-4.438
389.53	7.062
389.76	-13.218
389.99	-10.656
390.23	-6.338
390.46	-2.538
390.70	12.500
390.93	-8.101
391.16	-4.878
391.40	-11.429
391.63	-7.627
391.87	-21.282
392.10	-7.282
392.33	2.948
392.57	-2.843
392.80	-9.026
393.03	-6.318
393.27	-2.301
393.50	-0.210
393.74	-12.349
393.97	-8.370
394.20	-5.761
394.44	-16.964
394.67	-8.016
394.90	-7.531
395.14	8.148
395.37	2.762
395.60	-20.000
395.84	0.209
396.07	-8.582
396.31	-5.534
396.54	-0.193
396.77	-5.374
397.01	2.471
397.24	-0.696
397.47	-2.763
397.71	7.680
397.94	1.207
398.17	6.700
398.41	-1.095
398.64	-4.717
398.87	-9.453
399.11	-1.466
399.34	-8.087
399.57	2.557
399.81	-4.355
400.04	0.301
400.27	-7.891
400.51	4.843
400.74	5.726
400.97	-0.850
401.21	3.294
401.44	1.611
401.67	-9.008
401.91	-10.105
402.14	-2.302
402.37	-2.915
402.61	-1.652
402.84	2.003
403.07	-0.137
403.31	-7.353
403.54	-0.649
403.77	-4.399
404.00	-5.190
404.24	0.847
404.47	0.351
404.70	2.840
404.94	2.945
405.17	-3.448
405.40	1.697
405.64	-1.247
405.87	0.425
406.10	-1.703
406.34	4.033
406.57	8.152
406.80	-0.108
407.03	-1.693
407.27	-2.155
407.50	-0.106
407.73	1.089
407.97	2.801
408.20	1.493
408.43	-0.884
408.66	-0.608
408.90	4.183
409.13	4.942
409.36	-2.474
409.60	0.686
409.83	-0.894
410.06	-2.299
410.29	-1.564
410.53	4.087
410.76	-1.163
410.99	0.000
411.22	-3.959
411.46	-0.519
411.69	2.549
411.92	-1.692
412.16	0.000
412.39	5.393
412.62	1.245
412.85	0.825
413.09	-3.715
413.32	-3.390
413.55	-1.737
413.78	0.000
414.02	-1.271
414.25	-6.288
414.48	0.523
414.71	4.139
414.95	2.472
415.18	1.834
415.41	0.263
415.64	-0.339
415.88	0.203
416.11	-0.462
416.34	-1.856
416.57	-0.706
416.80	-0.380
417.04	-1.174
417.27	0.742
417.50	2.255
417.73	-0.578
417.97	1.370
418.20	-2.205
418.43	0.345
418.66	-0.417
418.90	1.934
419.13	-0.822
419.36	-0.894
419.59	-0.907
419.82	0.444
420.06	-0.675
420.29	0.053
420.52	-3.725
420.75	-2.076
420.98	0.211
421.22	-0.157
421.45	-4.006
421.68	0.096
421.91	-0.910
422.15	1.881
422.38	1.492
422.61	-0.093
422.84	-0.172
423.07	-0.142
423.31	1.396
423.54	0.638
423.77	-0.753
424.00	-1.461
424.23	-2.000
424.46	0.645
424.70	0.445
424.93	1.081
425.16	-0.469
425.39	1.237
425.62	-1.933
425.86	-1.262
426.09	-1.180
426.32	0.676
426.55	-1.516
426.78	0.372
427.01	-0.117
427.25	1.454
427.48	-1.042
427.71	-0.427
427.94	0.946
428.17	-0.069
428.40	-1.657
428.64	-0.036
428.87	0.898
429.10	1.179
429.33	-1.106
429.56	-0.298
429.79	-0.224
430.03	-0.419
430.26	0.699
430.49	-0.646
430.72	-0.062
430.95	-0.557
431.18	-0.740
431.42	0.431
431.65	1.491
431.88	0.605
432.11	0.498
432.34	2.120
432.57	0.792
432.80	-0.824
433.04	-0.738
433.27	-0.697
433.50	-0.200
433.73	-0.408
433.96	-1.401
434.19	-0.283
434.42	-0.365
434.65	-0.124
434.89	0.744
435.12	-0.645
435.35	0.025
435.58	-0.605
435.81	-0.361
436.04	0.526
436.27	0.452
436.50	0.904
436.74	0.848
436.97	0.241
437.20	0.354
437.43	0.920
437.66	-0.931
437.89	-1.222
438.12	-1.277
438.35	-0.206
438.58	-0.067
438.82	0.599
439.05	-0.523
439.28	-0.365
439.51	0.021
439.74	0.705
439.97	-0.062
440.20	-0.309
440.43	0.310
440.66	-0.077
440.89	0.674
441.12	0.170
441.36	-0.205
441.59	-0.339
441.82	-0.891
442.05	-0.054
442.28	-1.160
442.51	0.275
442.74	0.660
442.97	0.972
443.20	0.634
443.43	0.793
443.66	0.886
443.89	0.307
444.13	0.805
444.36	-0.721
444.59	0.569
444.82	-0.695
445.05	-0.032
445.28	0.786
445.51	0.252
445.74	-0.016
445.97	-0.158
446.20	0.655
446.43	-0.772
446.66	-0.221
446.89	-0.457
447.12	-0.965
447.35	-0.634
447.58	0.658
447.81	0.402
448.05	0.142
448.28	0.635
448.51	0.406
448.74	-0.099
448.97	0.459
449.20	0.212
449.43	-0.533
449.66	-0.306
449.89	0.234
450.12	-0.053
450.35	0.231
450.58	-0.174
450.81	0.565
451.04	0.557
451.27	-0.186
451.50	0.114
451.73	-0.113
451.96	0.346
452.19	0.444
452.42	0.124
452.65	0.071
452.88	0.036
453.11	0.000
453.34	-0.149
453.57	0.133
453.80	0.336
454.03	-0.268
454.26	-0.118
454.49	0.445
454.72	-0.389
454.95	0.400
455.18	0.414
455.41	0.137
455.64	-0.121
455.87	0.089
456.10	-0.163
456.33	0.216
456.56	-0.136
456.79	0.205
457.02	-0.167
457.25	0.336
457.48	-0.087
457.71	-0.449
457.94	-0.480
458.17	0.429
458.40	0.371
458.63	0.120
458.86	0.125
459.09	0.256
459.32	0.097
459.55	-0.100
459.78	-0.186
460.01	0.236
460.24	0.107
460.47	0.414
460.70	0.150
460.93	-0.112
461.16	0.507
461.39	-0.157
461.62	-0.268
461.85	-0.343
462.08	-0.034
462.31	-0.136
462.54	-0.042
462.77	-0.094
463.00	-0.093
463.22	-0.232
463.45	0.139
463.68	0.056
463.91	0.281
464.14	0.102
464.37	0.257
464.60	0.750
464.83	0.299
465.06	0.232
465.29	0.501
465.52	-0.184
465.75	0.193
465.98	0.043
466.21	-0.056
466.44	0.142
466.67	0.231
466.90	0.271
467.12	0.342
467.35	0.047
467.58	-0.082
467.81	0.239
468.04	0.528
468.27	0.661
468.50	0.445
468.73	0.273
468.96	0.461
469.19	0.211
469.42	0.148
469.65	0.072
469.87	-0.018
470.10	-0.060
470.33	-0.116
470.56	0.150
470.79	0.103
471.02	0.051
471.25	0.175
471.48	0.150
471.71	-0.048
471.94	0.011
472.17	-0.212
472.39	-0.097
472.62	0.149
472.85	0.433
473.08	0.176
473.31	-0.036
473.54	-0.019
473.77	0.144
474.00	0.223
474.23	-0.048
474.45	0.018
474.68	0.260
474.91	0.120
475.14	0.076
475.37	0.058
475.60	0.227
475.83	0.217
476.06	-0.108
476.28	0.239
476.51	0.080
476.74	0.075
476.97	0.219
477.20	0.123
477.43	0.173
477.66	0.101
477.88	0.113
478.11	0.206
478.34	0.178
478.57	0.091
478.80	0.046
479.03	-0.053
479.26	-0.041
479.48	0.059
479.71	-0.099
479.94	-0.065
480.17	0.081
480.40	-0.209
480.63	0.069
480.86	-0.185
481.08	0.028
481.31	0.111
481.54	0.211
481.77	0.089
482.00	-0.070
482.23	-0.141
482.45	0.087
482.68	-0.039
482.91	-0.038
483.14	-0.107
483.37	0.025
483.60	0.063
483.82	-0.034
484.05	-0.077
484.28	-0.054
484.51	-0.012
484.74	-0.009
484.96	0.056
485.19	0.126
485.42	-0.012
485.65	-0.034
485.88	-0.043
486.10	-0.042
486.33	0.070
486.56	0.019
486.79	0.055
487.02	0.016
487.25	0.003
487.47	-0.067
487.70	0.083
487.93	0.088
488.16	-0.013
488.39	-0.133
488.61	-0.023
488.84	-0.023
489.07	0.008
489.30	0.062
489.52	0.162
489.75	-0.094
489.98	0.030
490.21	-0.020
490.44	0.063
490.66	-0.048
490.89	0.048
491.12	-0.012
491.35	0.002
491.57	0.002
491.80	0.094
492.03	-0.014
492.26	0.023
492.49	-0.039
492.71	0.202
492.94	0.054
493.17	0.027
493.40	-0.038
493.62	0.018
493.85	0.022
494.08	0.082
494.31	0.109
494.53	0.064
494.76	0.013
494.99	0.099
495.22	0.012
495.44	0.056
495.67	0.027
495.90	0.075
496.13	0.020
496.35	0.056
496.58	0.036
496.81	0.004
497.04	0.014
497.26	0.073
497.49	0.033
497.72	-0.012
497.95	0.072
498.17	-0.021
498.40	0.025
498.63	0.195
498.85	0.099
499.08	0.066
499.31	0.099
499.54	0.037
499.76	0.016
499.99	0.045
500.22	-0.025
500.44	0.013
500.67	0.041
500.90	0.091
501.13	0.034
501.35	0.042
501.58	0.121
501.81	0.030
502.03	0.088
502.26	-0.026
502.49	0.007
502.72	0.062
502.94	-0.042
503.17	0.034
503.40	-0.015
503.62	-0.065
503.85	-0.013
504.08	0.074
504.30	0.103
504.53	-0.007
504.76	0.034
504.98	0.112
505.21	-0.019
505.44	-0.002
505.67	0.124
505.89	0.051
506.12	0.046
506.35	0.019
506.57	0.006
506.80	-0.012
507.03	-0.017
507.25	-0.028
507.48	-0.041
507.71	0.054
507.93	0.033
508.16	0.003
508.39	0.083
508.61	-0.013
508.84	0.018
509.07	0.037
509.29	0.019
509.52	-0.039
509.75	0.015
509.97	0.085
510.20	0.006
510.43	-0.046
510.65	0.049
510.88	0.066
511.10	0.036
511.33	0.017
511.56	-0.028
511.78	0.068
512.01	0.062
512.24	0.053
512.46	0.018
512.69	0.092
512.92	0.008
513.14	-0.007
513.37	0.005
513.59	0.055
513.82	0.085
514.05	0.117
514.27	0.064
514.50	0.000
514.73	0.028
514.95	0.035
515.18	0.066
515.40	0.020
515.63	0.093
515.86	0.018
516.08	-0.009
516.31	-0.009
516.54	0.041
516.76	0.043
516.99	0.105
517.21	0.037
517.44	0.033
517.67	0.070
517.89	0.067
518.12	0.116
518.34	0.004
518.57	0.000
518.80	0.043
519.02	0.052
519.25	0.059
519.47	-0.035
519.70	0.035
519.93	0.063
520.15	0.077
520.38	0.090
520.60	0.104
520.83	0.009
521.05	0.023
521.28	0.022
521.51	0.064
521.73	0.065
521.96	0.065
522.18	0.026
522.41	0.063
522.63	0.027
522.86	-0.014
523.09	0.021
523.31	0.070
523.54	0.080
523.76	0.044
523.99	0.020
524.21	0.086
524.44	0.092
524.67	0.055
524.89	0.042
525.12	0.015
525.34	0.059
525.57	0.064
525.79	0.042
526.02	0.048
526.24	0.064
526.47	0.098
526.69	0.032
526.92	0.015
527.15	0.110
527.37	0.096
527.60	0.061
527.82	0.080
528.05	0.093
528.27	0.075
528.50	0.060
528.72	0.080
528.95	0.062
529.17	0.028
529.40	0.031
529.62	0.065
529.85	-0.003
530.07	0.017
530.30	0.083
530.52	0.052
530.75	0.080
530.98	0.052
531.20	0.105
531.43	-0.014
531.65	0.048
531.88	0.052
532.10	0.021
532.33	0.088
532.55	0.072
532.78	0.063
533.00	0.021
533.23	0.027
533.45	0.096
533.68	0.126
533.90	0.080
534.13	0.033
534.35	0.056
534.58	0.084
534.80	0.041
535.03	0.078
535.25	0.036
535.47	0.042
535.70	0.025
535.92	0.043
536.15	0.069
536.37	0.059
536.60	0.081
536.82	0.102
537.05	0.043
537.27	0.063
537.50	0.056
537.72	0.032
537.95	0.061
538.17	0.099
538.40	0.071
538.62	0.050
538.85	0.069
539.07	0.055
539.29	0.039
539.52	0.070
539.74	0.050
539.97	0.064
540.19	0.029
540.42	0.095
540.64	0.034
540.87	0.084
541.09	0.068
541.32	0.032
541.54	0.089
541.76	0.064
541.99	0.050
542.21	0.056
542.44	0.075
542.66	0.056
542.89	0.060
543.11	0.073
543.33	0.134
543.56	0.103
543.78	0.070
544.01	0.063
544.23	0.006
544.46	0.081
544.68	0.084
544.90	0.077
545.13	0.035
545.35	0.082
545.58	0.051
545.80	0.063
546.03	0.049
546.25	0.071
546.47	0.061
546.70	0.083
546.92	0.049
547.15	0.034
547.37	0.083
547.59	0.106
547.82	0.124
548.04	0.098
548.27	0.031
548.49	0.100
548.71	0.058
548.94	0.077
549.16	0.087
549.39	0.099
549.61	0.052
549.83	0.047
550.06	0.096
550.28	0.127
550.50	0.090
550.73	0.094
550.95	0.077
551.18	0.073
551.40	0.063
551.62	0.091
551.85	0.093
552.07	0.120
552.29	0.109
552.52	0.113
552.74	0.044
552.97	0.102
553.19	0.115
553.41	0.081
553.64	0.113
553.86	0.132
554.08	0.091
554.31	0.060
554.53	0.029
554.75	0.039
554.98	0.065
555.20	0.112
555.42	0.089
555.65	0.095
555.87	0.053
556.10	0.081
556.32	0.055
556.54	0.076
556.77	0.076
556.99	0.107
557.21	0.102
557.44	0.081
557.66	0.067
557.88	0.083
558.11	0.104
558.33	0.121
558.55	0.082
558.78	0.060
559.00	0.107
559.22	0.086
559.44	0.102
559.67	0.091
559.89	0.107
560.11	0.088
560.34	0.108
560.56	0.158
560.78	0.076
561.01	0.127
561.23	0.089
561.45	0.105
561.68	0.068
561.90	0.127
562.12	0.085
562.35	0.098
562.57	0.112
562.79	0.128
563.01	0.120
563.24	0.113
563.46	0.144
563.68	0.145
563.91	0.123
564.13	0.119
564.35	0.125
564.57	0.100
564.80	0.129
565.02	0.103
565.24	0.079
565.47	0.145
565.69	0.131
565.91	0.098
566.13	0.145
566.36	0.128
566.58	0.123
566.80	0.134
567.02	0.158
567.25	0.153
567.47	0.148
567.69	0.130
567.92	0.096
568.14	0.159
568.36	0.119
568.58	0.130
568.81	0.138
569.03	0.123
569.25	0.102
569.47	0.177
569.70	0.150
569.92	0.162
570.14	0.152
570.36	0.129
570.59	0.141
570.81	0.148
571.03	0.118
571.25	0.138
571.47	0.124
571.70	0.152
571.92	0.139
572.14	0.171
572.36	0.126
572.59	0.107
572.81	0.156
573.03	0.154
573.25	0.156
573.48	0.154
573.70	0.125
573.92	0.172
574.14	0.164
574.36	0.151
574.59	0.136
574.81	0.153
575.03	0.154
575.25	0.144
575.47	0.166
575.70	0.166
575.92	0.152
576.14	0.160
576.36	0.177
576.59	0.171
576.81	0.189
577.03	0.229
577.25	0.191
577.47	0.224
577.69	0.218
577.92	0.214
578.14	0.261
578.36	0.270
578.58	0.287
578.80	0.297
579.03	0.298
579.25	0.316
579.47	0.359
579.69	0.374
579.91	0.417
580.14	0.451
580.36	0.505
580.58	0.574
580.80	0.623
581.02	0.668
581.24	0.753
581.47	0.854
581.69	0.949
581.91	1.065
582.13	1.195
582.35	1.294
582.57	1.457
582.79	1.626
583.02	1.805
583.24	2.010
583.46	2.255
583.68	2.491
583.90	2.797
584.12	3.097
584.35	3.408
584.57	3.733
584.79	4.101
585.01	4.474
585.23	4.911
585.45	5.412
585.67	5.891
585.90	6.439
586.12	6.992
586.34	7.579
586.56	8.172
586.78	8.738
587.00	9.441
587.22	10.077
587.44	10.867
587.67	11.595
587.89	12.363
588.11	13.138
588.33	13.969
588.55	14.884
588.77	15.762
588.99	16.704
589.21	17.721
589.43	18.693
589.66	19.687
589.88	20.786
590.10	21.977
590.32	23.089
590.54	24.223
590.76	25.401
590.98	26.403
591.20	27.524
591.42	28.575
591.64	29.670
591.87	30.922
592.09	31.936
592.31	32.999
592.53	34.095
592.75	34.994
592.97	36.225
593.19	37.282
593.41	38.528
593.63	39.759
593.85	40.607
594.07	41.795
594.29	42.931
594.52	43.997
594.74	44.989
594.96	45.991
595.18	47.041
595.40	48.217
595.62	49.267
595.84	50.156
596.06	51.076
596.28	52.138
596.50	53.109
596.72	53.956
596.94	54.884
597.16	55.697
597.38	56.715
597.60	57.434
597.82	58.250
598.05	58.990
598.27	59.652
598.49	60.363
598.71	61.148
598.93	61.998
599.15	62.733
599.37	63.601
599.59	64.025
599.81	64.876
600.03	65.546
600.25	66.366
600.47	66.957
600.69	67.613
600.91	68.265
601.13	68.760
601.35	69.090
601.57	69.502
601.79	69.800
602.01	70.141
602.23	70.300
602.45	70.743
602.67	71.209
602.89	71.990
603.11	72.718
603.33	73.526
603.55	74.250
603.77	74.874
603.99	75.710
604.21	75.871
604.43	76.349
604.65	76.896
604.87	77.102
605.09	77.156
605.31	77.379
605.53	77.836
605.75	78.160
605.97	78.511
606.19	78.973
606.41	79.087
606.63	79.651
606.85	80.193
607.07	80.721
607.29	80.760
607.51	80.862
607.73	81.269
607.95	81.546
608.17	81.803
608.39	81.805
608.61	81.479
608.83	81.610
609.05	81.963
609.27	82.133
609.49	82.197
609.71	82.385
609.93	82.617
610.15	82.891
610.37	83.125
610.59	83.479
610.81	83.657
611.03	83.801
611.24	84.255
611.46	84.550
611.68	84.931
611.90	85.059
612.12	84.988
612.34	84.924
612.56	84.794
612.78	84.774
613.00	84.574
613.22	84.677
613.44	84.981
613.66	85.021
613.88	85.495
614.10	85.477
614.32	85.641
614.54	85.682
614.75	86.014
614.97	86.196
615.19	85.799
615.41	85.955
615.63	85.927
615.85	85.783
616.07	85.823
616.29	85.720
616.51	85.944
616.73	86.346
616.95	86.499
617.17	86.758
617.38	87.103
617.60	87.116
617.82	87.509
618.04	87.752
618.26	87.968
618.48	88.401
618.70	88.776
618.92	88.791
619.14	88.857
619.36	88.816
619.57	88.610
619.79	88.752
620.01	89.134
620.23	88.850
620.45	88.730
620.67	88.427
620.89	88.241
621.11	88.122
621.33	88.633
621.54	89.121
621.76	88.960
621.98	88.572
622.20	88.490
622.42	88.163
622.64	88.248
622.86	88.606
623.07	89.015
623.29	89.523
623.51	89.539
623.73	89.421
623.95	88.861
624.17	88.444
624.39	88.511
624.60	88.450
624.82	88.525
625.04	88.875
625.26	89.169
625.48	89.820
625.70	89.819
625.92	89.687
626.13	89.563
626.35	89.519
626.57	89.855
626.79	90.227
627.01	90.408
627.23	90.514
627.44	90.185
627.66	89.911
627.88	89.833
628.10	89.673
628.32	89.501
628.54	89.441
628.75	89.771
628.97	90.096
629.19	90.568
629.41	90.513
629.63	90.347
629.84	90.289
630.06	90.053
630.28	90.113
630.50	90.263
630.72	90.552
630.94	90.440
631.15	90.351
631.37	90.428
631.59	90.251
631.81	90.162
632.03	90.148
632.24	90.194
632.46	90.028
632.68	90.452
632.90	90.640
633.11	90.943
633.33	91.304
633.55	91.272
633.77	90.868
633.99	90.638
634.20	90.721
634.42	91.015
634.64	91.001
634.86	90.784
635.08	90.841
635.29	91.112
635.51	91.066
635.73	91.003
635.95	90.724
636.16	90.703
636.38	90.808
636.60	90.838
636.82	90.698
637.03	90.536
637.25	90.037
637.47	89.496
637.69	89.507
637.90	89.404
638.12	89.729
638.34	89.766
638.56	89.801
638.77	89.580
638.99	89.593
639.21	89.679
639.43	89.915
639.64	90.448
639.86	90.639
640.08	90.792
640.30	90.552
640.51	90.464
640.73	90.596
640.95	90.700
641.17	90.974
641.38	91.196
641.60	91.214
641.82	91.549
642.03	91.536
642.25	91.134
642.47	90.901
642.69	90.711
642.90	90.313
643.12	90.344
643.34	90.374
643.55	90.708
643.77	90.956
643.99	91.439
644.21	91.527
644.42	91.496
644.64	90.934
644.86	90.617
645.07	90.657
645.29	90.532
645.51	90.724
645.73	90.839
645.94	90.961
646.16	90.690
646.38	90.175
646.59	89.851
646.81	89.894
647.03	90.169
647.24	90.253
647.46	90.272
647.68	90.151
647.89	90.043
648.11	90.336
648.33	90.853
648.54	91.705
648.76	91.813
648.98	91.886
649.19	92.320
649.41	92.251
649.63	91.857
649.84	91.526
650.06	91.059
650.28	90.882
650.49	90.902
650.71	91.014
650.93	91.011
651.14	91.057
651.36	91.074
651.58	90.980
651.79	90.788
652.01	90.513
652.23	90.620
652.44	90.584
652.66	90.982
652.88	91.190
653.09	91.357
653.31	91.306
653.52	91.298
653.74	91.602
653.96	91.780
654.17	91.788
654.39	91.988
654.61	92.467
654.82	92.370
655.04	92.384
655.25	92.152
655.47	91.677
655.69	91.128
655.90	91.170
656.12	91.054
656.34	91.251
656.55	91.419
656.77	91.188
656.98	91.110
657.20	91.162
657.42	91.385
657.63	91.365
657.85	91.492
658.06	91.760
658.28	91.717
658.50	91.490
658.71	91.491
658.93	91.095
659.14	91.202
659.36	91.351
659.58	91.406
659.79	91.421
660.01	91.269
660.22	91.296
660.44	91.158
660.65	91.105
660.87	91.363
661.09	91.594
661.30	91.997
661.52	92.005
661.73	92.012
661.95	91.929
662.16	91.719
662.38	91.384
662.60	91.121
662.81	91.306
663.03	91.340
663.24	91.666
663.46	92.010
663.67	92.705
663.89	92.408
664.11	92.399
664.32	92.390
664.54	92.179
664.75	91.926
664.97	91.820
665.18	92.104
665.40	91.937
665.61	91.320
665.83	91.015
666.04	91.077
666.26	91.500
666.48	91.830
666.69	92.119
666.91	92.213
667.12	92.354
667.34	92.479
667.55	92.376
667.77	92.135
667.98	91.995
668.20	91.951
668.41	92.004
668.63	92.231
668.84	92.389
669.06	92.402
669.27	92.689
669.49	92.796
669.70	92.884
669.92	92.527
670.13	92.473
670.35	92.643
670.56	92.685
670.78	92.512
670.99	92.134
671.21	92.294
671.42	92.313
671.64	92.093
671.85	92.404
672.07	92.203
672.28	91.500
672.50	91.011
672.71	90.951
672.93	91.147
673.14	91.395
673.36	91.444
673.57	91.779
673.79	91.839
674.00	91.723
674.22	92.036
674.43	91.849
674.65	91.947
674.86	92.244
675.08	91.912
675.29	91.522
675.50	91.506
675.72	91.544
675.93	91.233
676.15	91.097
676.36	91.054
676.58	91.194
676.79	91.677
677.01	91.624
677.22	91.467
677.44	91.582
677.65	91.865
677.86	92.455
678.08	92.938
678.29	93.142
678.51	93.032
678.72	93.184
678.94	93.219
679.15	93.230
679.37	93.242
679.58	93.295
679.79	93.001
680.01	92.395
680.22	92.114
680.44	91.811
680.65	91.400
680.87	91.115
681.08	91.221
681.29	91.679
681.51	91.716
681.72	92.021
681.94	92.446
682.15	92.530
682.36	92.667
682.58	92.948
682.79	93.041
683.01	92.693
683.22	92.393
683.43	92.400
683.65	92.836
683.86	92.291
684.08	92.190
684.29	92.128
684.50	92.207
684.72	92.228
684.93	92.090
685.15	92.203
685.36	92.840
685.57	93.154
685.79	93.227
686.00	93.320
686.22	93.022
686.43	92.529
686.64	92.149
686.86	91.935
687.07	91.724
687.28	91.989
687.50	92.343
687.71	92.573
687.93	92.591
688.14	92.685
688.35	92.667
688.57	92.783
688.78	92.598
688.99	92.118
689.21	92.403
689.42	92.945
689.63	92.965
689.85	93.277
690.06	93.300
690.27	92.869
690.49	93.196
690.70	93.234
690.91	93.279
691.13	92.857
691.34	92.792
691.56	93.010
691.77	93.161
691.98	92.686
692.20	92.670
692.41	92.961
692.62	93.295
692.84	93.690
693.05	93.719
693.26	93.633
693.47	93.637
693.69	93.145
693.90	93.109
694.11	93.072
694.33	93.091
694.54	93.298
694.75	93.464
694.97	93.388
695.18	93.495
695.39	93.346
695.61	93.273
695.82	93.087
696.03	92.764
696.25	92.504
696.46	92.669
696.67	92.345
696.88	92.024
697.10	92.174
697.31	92.391
697.52	92.476
697.74	92.720
697.95	92.984
698.16	93.011
698.37	93.205
698.59	93.269
698.80	92.837
699.01	92.880
699.23	92.660
699.44	92.600
699.65	92.790
699.86	92.826
700.08	92.754
700.29	93.056
700.50	93.140
700.71	92.955
700.93	92.847
701.14	92.884
701.35	92.957
701.56	92.692
701.78	92.443
701.99	92.439
702.20	92.730
702.41	92.597
702.63	92.852
702.84	92.501
703.05	92.111
703.26	92.152
703.48	92.119
703.69	92.309
703.90	92.284
704.11	92.537
704.33	92.980
704.54	93.310
704.75	93.375
704.96	93.674
705.18	93.905
705.39	93.570
705.60	93.152
705.81	92.765
706.02	92.389
706.24	92.296
706.45	92.238
706.66	92.529
706.87	92.889
707.09	93.163
707.30	93.613
707.51	93.755
707.72	93.711
707.93	93.701
708.15	93.847
708.36	93.702
708.57	93.107
708.78	92.931
708.99	92.976
709.21	93.217
709.42	93.038
709.63	93.104
709.84	93.206
710.05	92.886
710.27	92.755
710.48	92.629
710.69	92.621
710.90	92.266
711.11	92.158
711.32	92.431
711.54	92.592
711.75	92.995
711.96	93.878
712.17	94.511
712.38	94.691
712.59	94.213
712.81	93.996
713.02	93.588
713.23	93.696
713.44	93.817
713.65	93.865
713.86	94.068
714.08	94.196
714.29	94.180
714.50	93.847
714.71	93.597
714.92	93.775
715.13	93.771
715.34	93.245
715.56	92.649
715.77	92.662
715.98	92.566
716.19	92.506
716.40	92.549
716.61	93.028
716.82	93.363
717.04	93.486
717.25	93.429
717.46	93.288
717.67	93.303
717.88	93.165
718.09	92.866
718.30	93.124
718.51	93.253
718.73	93.103
718.94	93.007
719.15	92.788
719.36	92.664
719.57	92.807
719.78	92.958
719.99	93.025
720.20	93.303
720.41	93.249
720.63	93.659
720.84	93.322
721.05	93.445
721.26	93.228
721.47	92.902
721.68	92.581
721.89	92.559
722.10	93.196
722.31	93.306
722.52	92.774
722.73	92.490
722.95	92.833
723.16	93.244
723.37	93.318
723.58	93.603
723.79	93.822
724.00	93.955
724.21	93.615
724.42	93.083
724.63	92.205
724.84	92.512
725.05	92.486
725.26	92.523
725.47	92.445
725.68	92.545
725.90	92.543
726.11	92.306
726.32	92.522
726.53	92.767
726.74	92.407
726.95	92.187
727.16	92.216
727.37	92.217
727.58	92.733
727.79	92.472
728.00	92.419
728.21	92.557
728.42	92.646
728.63	92.560
728.84	92.798
729.05	93.234
729.26	93.889
729.47	94.123
729.68	93.610
729.89	93.452
730.10	93.510
730.31	93.778
730.52	93.574
730.73	93.592
730.94	93.479
731.15	92.857
731.36	92.847
731.57	92.993
731.78	92.957
731.99	93.440
732.20	93.463
732.41	93.228
732.62	92.954
732.83	92.932
733.04	92.937
733.25	92.773
733.46	92.564
733.67	93.233
733.88	93.442
734.09	93.909
734.30	94.029
734.51	94.484
734.72	94.518
734.93	93.887
735.14	93.635
735.35	93.488
735.56	93.565
735.77	93.791
735.98	93.565
736.19	93.394
736.40	92.837
736.61	93.190
736.82	93.382
737.03	93.346
737.24	93.202
737.45	92.849
737.66	92.883
737.87	92.926
738.08	92.824
738.29	93.311
738.50	93.277
738.71	93.227
738.92	93.402
739.13	93.641
739.34	93.880
739.55	94.421
739.75	94.359
739.96	94.126
740.17	93.761
740.38	94.147
740.59	94.432
740.80	94.075
741.01	94.245
741.22	94.506
741.43	94.411
741.64	94.264
741.85	94.008
742.06	93.775
742.27	93.333
742.48	93.204
742.68	93.051
742.89	92.808
743.10	92.936
743.31	93.150
743.52	93.154
743.73	93.242
743.94	92.676
744.15	92.793
744.36	92.840
744.57	92.578
744.78	92.370
744.98	92.866
745.19	93.570
745.40	93.798
745.61	94.318
745.82	94.790
746.03	94.947
746.24	94.742
746.45	94.718
746.66	94.669
746.86	94.627
747.07	94.841
747.28	95.353
747.49	95.384
747.70	95.709
747.91	95.564
748.12	95.592
748.33	94.621
748.53	93.740
748.74	93.361
748.95	93.152
749.16	93.147
749.37	93.295
749.58	93.170
749.79	92.983
749.99	93.016
750.20	93.210
750.41	93.674
750.62	93.733
750.83	93.730
751.04	93.792
751.25	93.905
751.45	93.783
751.66	93.445
751.87	93.057
752.08	92.569
752.29	92.114
752.50	91.546
752.70	91.550
752.91	91.815
753.12	92.776
753.33	93.357
753.54	93.470
753.75	93.948
753.95	93.178
754.16	92.988
754.37	93.133
754.58	93.442
754.79	92.824
754.99	92.895
755.20	92.634
755.41	91.998
755.62	91.737
755.83	91.996
756.04	92.610
756.24	92.837
756.45	93.090
756.66	93.618
756.87	93.581
757.08	93.369
757.28	93.261
757.49	93.421
757.70	92.851
757.91	92.519
758.11	92.475
758.32	92.899
758.53	93.127
758.74	93.201
758.95	93.320
759.15	93.427
759.36	93.439
759.57	93.452
759.78	93.755
759.98	93.036
760.19	92.862
760.40	93.122
760.61	93.416
760.82	93.740
761.02	93.819
761.23	94.180
761.44	94.658
761.65	94.845
761.85	94.378
762.06	93.943
762.27	94.051
762.48	93.794
762.68	93.632
762.89	93.837
763.10	93.726
763.31	93.358
763.51	93.167
763.72	93.425
763.93	94.069
764.13	94.292
764.34	94.144
764.55	94.004
764.76	94.040
764.96	93.875
765.17	93.623
765.38	93.612
765.59	93.734
765.79	94.311
766.00	94.367
766.21	94.728
766.41	94.458
766.62	94.194
766.83	93.915
767.04	93.273
767.24	93.263
767.45	93.610
767.66	93.610
767.86	93.355
768.07	93.261
768.28	93.455
768.48	93.443
768.69	93.161
768.90	93.193
769.11	92.895
769.31	92.428
769.52	91.874
769.73	91.652
769.93	91.949
770.14	92.552
770.35	92.746
770.55	92.841
770.76	93.535
770.97	93.455
771.17	93.573
771.38	93.066
771.59	92.865
771.79	92.121
772.00	92.168
772.21	92.201
772.41	92.670
772.62	93.174
772.83	93.192
773.03	93.136
773.24	93.248
773.45	92.928
773.65	92.866
773.86	92.973
774.07	93.043
774.27	93.248
774.48	93.114
774.69	93.086
774.89	93.314
775.10	93.273
775.30	92.952
775.51	92.661
775.72	93.053
775.92	93.067
776.13	92.594
776.34	92.622
776.54	92.798
776.75	93.158
776.95	92.930
777.16	92.963
777.37	93.152
777.57	92.967
777.78	92.795
777.99	92.822
778.19	92.801
778.40	92.346
778.60	91.677
778.81	91.714
779.02	91.557
779.22	91.535
779.43	91.648
779.63	92.008
779.84	92.107
780.05	92.349
780.25	92.621
780.46	92.305
780.66	92.382
780.87	92.588
781.08	92.517
781.28	92.378
781.49	92.208
781.69	92.698
781.90	92.972
782.10	93.320
782.31	93.734
782.52	93.576
782.72	93.673
782.93	93.443
783.13	93.911
783.34	93.550
783.54	93.249
783.75	93.381
783.96	93.213
784.16	93.575
784.37	92.965
784.57	93.225
784.78	93.002
784.98	92.847
785.19	92.845
785.39	92.464
785.60	92.244
785.80	92.359
786.01	92.695
786.22	93.004
786.42	93.304
786.63	93.135
786.83	92.814
787.04	92.721
787.24	92.442
787.45	92.297
787.65	92.784
787.86	93.428
788.06	93.158
788.27	92.911
788.47	93.027
788.68	92.935
788.88	93.186
789.09	92.714
789.29	92.679
789.50	92.760
789.70	92.982
789.91	93.120
790.11	92.693
790.32	92.817
790.52	92.784
790.73	92.511
790.93	92.501
791.14	92.883
791.34	92.817
791.55	92.682
791.75	92.729
791.96	92.801
792.16	92.825
792.37	92.661
792.57	92.071
792.78	92.235
792.98	92.718
793.19	92.475
793.39	92.754
793.60	93.532
793.80	93.302
794.01	93.330
794.21	93.572
794.42	93.199
794.62	93.149
794.83	92.957
795.03	92.979
795.24	92.869
795.44	92.955
795.64	93.044
795.85	93.300
796.05	93.391
796.26	93.175
796.46	93.520
796.67	93.758
796.87	93.937
797.08	94.510
797.28	94.164
797.48	94.502
797.69	94.204
797.89	94.205
798.10	93.963
798.30	93.790
798.51	93.434
798.71	93.327
798.91	93.435
799.12	93.565
799.32	93.448
799.53	93.081
799.73	92.934
799.94	93.091
800.14	93.010
800.34	92.620
800.55	92.325
800.75	92.293
800.96	92.714
801.16	92.275
801.36	92.289
801.57	92.704
801.77	92.887
801.98	93.170
802.18	93.381
802.38	93.022
802.59	93.362
802.79	93.407
803.00	93.163
803.20	92.995
803.40	92.858
803.61	92.903
803.81	92.803
804.02	92.852
804.22	93.049
804.42	93.065
804.63	93.211
804.83	92.564
805.03	92.459
805.24	92.442
805.44	92.092
805.65	92.028
805.85	91.751
806.05	91.962
806.26	91.632
806.46	91.049
806.66	90.958
806.87	90.636
807.07	90.826
807.27	91.090
807.48	91.391
807.68	91.970
807.88	91.575
808.09	91.242
808.29	91.161
808.49	90.913
808.70	90.289
808.90	90.401
809.10	89.989
809.31	89.991
809.51	89.510
809.71	89.367
809.92	89.478
810.12	89.615
810.32	89.858
810.53	90.109
810.73	90.322
810.93	90.644
811.14	91.437
811.34	92.171
811.54	92.545
811.75	92.753
811.95	93.118
812.15	92.800
812.36	92.551
812.56	93.017
812.76	93.262
812.96	93.419
813.17	92.908
813.37	93.193
813.57	92.567
813.78	92.415
813.98	91.699
814.18	91.514
814.38	91.108
814.59	91.104
814.79	91.130
814.99	91.386
815.20	92.026
815.40	92.263
815.60	92.854
815.80	92.503
816.01	92.638
816.21	92.648
816.41	92.435
816.62	91.863
816.82	91.278
817.02	90.931
817.22	90.596
817.43	90.226
817.63	90.229
817.83	90.026
818.03	90.257
818.24	89.766
818.44	90.026
818.64	90.031
818.84	90.484
819.05	90.947
819.25	91.022
819.45	91.050
819.65	91.277
819.86	91.594
820.06	91.173
820.26	90.938
820.46	91.009
820.66	90.918
820.87	90.539
821.07	90.674
821.27	90.806
821.47	90.690
821.68	90.476
821.88	90.335
822.08	90.825
822.28	91.379
>>>>>End Spectral Data<<<<<
