OOIBase32 Version 2.0.1.4 Data File
++++++++++++++++++++++++++++++++++++
Date: 11-03-2025, 09:47:23
User: Valued Ocean Optics Customer
Spectrometer Serial Number: HR2B216
Spectrometer Channel: Master
Integration Time (msec): 5
Spectra Averaged: 80
Boxcar Smoothing: 0
Correct for Electrical Dark: Disabled
Time Normalized: Disabled
Dual-beam Reference: Disabled
Reference Channel: Master
Temperature: Not acquired
Spectrometer Type: S2000
ADC Type: HR2000
Number of Pixels in File: 2048
Graph Title: 
>>>>>Begin Spectral Data<<<<<
373.12	0.000
373.35	121.350
373.59	122.588
373.82	123.450
374.06	124.100
374.29	125.100
374.53	126.012
374.76	127.200
375.00	128.025
375.23	128.962
375.47	129.475
375.70	130.150
375.94	130.750
376.17	131.300
376.40	130.750
376.64	132.350
376.87	131.663
377.11	131.725
377.34	131.712
377.58	131.550
377.81	131.650
378.05	131.438
378.28	131.075
378.52	131.300
378.75	131.637
378.99	131.387
379.22	131.663
379.45	133.675
379.69	133.350
379.92	133.163
380.16	133.175
380.39	133.400
380.63	133.600
380.86	133.425
381.10	133.575
381.33	134.125
381.56	134.125
381.80	133.775
382.03	133.900
382.27	134.450
382.50	134.175
382.74	133.913
382.97	134.313
383.21	134.725
383.44	134.100
383.67	133.837
383.91	134.438
384.14	135.225
384.38	134.750
384.61	135.550
384.84	135.387
385.08	135.313
385.31	135.325
385.55	135.337
385.78	135.400
386.02	135.475
386.25	135.563
386.48	135.863
386.72	135.337
386.95	136.250
387.19	135.950
387.42	136.400
387.65	136.113
387.89	136.712
388.12	136.650
388.36	136.500
388.59	136.350
388.82	136.863
389.06	136.613
389.29	137.413
389.53	137.188
389.76	137.587
389.99	137.313
390.23	137.663
390.46	137.650
390.70	138.250
390.93	138.100
391.16	138.238
391.40	137.250
391.63	138.038
391.87	138.600
392.10	138.688
392.33	138.738
392.57	138.700
392.80	138.288
393.03	139.012
393.27	138.663
393.50	138.875
393.74	139.038
393.97	139.100
394.20	139.550
394.44	139.650
394.67	139.525
394.90	139.975
395.14	139.762
395.37	140.563
395.60	140.137
395.84	140.350
396.07	140.938
396.31	140.462
396.54	140.725
396.77	140.788
397.01	140.925
397.24	141.350
397.47	141.600
397.71	141.438
397.94	141.087
398.17	141.663
398.41	141.837
398.64	141.663
398.87	141.212
399.11	142.288
399.34	141.988
399.57	142.200
399.81	142.100
400.04	142.400
400.27	142.163
400.51	143.438
400.74	142.913
400.97	143.113
401.21	143.325
401.44	143.788
401.67	143.462
401.91	144.125
402.14	143.863
402.37	144.387
402.61	144.350
402.84	144.038
403.07	144.738
403.31	144.637
403.54	144.900
403.77	144.600
404.00	145.300
404.24	145.525
404.47	145.875
404.70	145.975
404.94	145.825
405.17	146.113
405.40	146.200
405.64	146.637
405.87	146.375
406.10	146.500
406.34	146.900
406.57	146.975
406.80	147.137
407.03	146.938
407.27	147.100
407.50	147.413
407.73	147.887
407.97	147.438
408.20	147.775
408.43	148.550
408.66	148.137
408.90	148.413
409.13	148.700
409.36	148.887
409.60	148.238
409.83	149.137
410.06	149.375
410.29	149.050
410.53	149.200
410.76	149.850
410.99	149.975
411.22	150.425
411.46	150.025
411.69	150.413
411.92	151.175
412.16	151.500
412.39	150.850
412.62	151.200
412.85	151.850
413.09	152.238
413.32	152.488
413.55	153.100
413.78	152.313
414.02	152.813
414.25	153.225
414.48	153.625
414.71	153.262
414.95	153.938
415.18	153.288
415.41	154.200
415.64	154.400
415.88	154.300
416.11	155.500
416.34	154.650
416.57	156.863
416.80	156.587
417.04	155.238
417.27	155.962
417.50	155.813
417.73	157.462
417.97	157.325
418.20	157.975
418.43	158.275
418.66	158.163
418.90	159.438
419.13	158.125
419.36	158.675
419.59	160.075
419.82	159.363
420.06	159.125
420.29	159.700
420.52	160.363
420.75	161.313
420.98	160.875
421.22	160.175
421.45	162.600
421.68	162.413
421.91	162.137
422.15	161.475
422.38	162.038
422.61	163.288
422.84	165.150
423.07	163.137
423.31	163.913
423.54	165.475
423.77	165.613
424.00	164.750
424.23	166.050
424.46	166.887
424.70	168.200
424.93	165.250
425.16	169.000
425.39	166.663
425.62	169.188
425.86	168.113
426.09	168.337
426.32	167.700
426.55	168.675
426.78	169.262
427.01	168.663
427.25	171.375
427.48	171.650
427.71	169.375
427.94	170.050
428.17	172.375
428.40	173.613
428.64	171.025
428.87	172.613
429.10	173.175
429.33	174.800
429.56	174.738
429.79	175.913
430.03	173.725
430.26	175.012
430.49	174.038
430.72	176.800
430.95	175.038
431.18	177.525
431.42	176.675
431.65	179.325
431.88	180.175
432.11	179.400
432.34	176.512
432.57	178.875
432.80	179.012
433.04	178.738
433.27	180.325
433.50	180.500
433.73	182.650
433.96	182.500
434.19	184.337
434.42	185.488
434.65	185.950
434.89	185.238
435.12	185.038
435.35	186.850
435.58	186.413
435.81	186.625
436.04	187.462
436.27	188.938
436.50	188.063
436.74	189.762
436.97	188.387
437.20	189.663
437.43	189.500
437.66	192.525
437.89	191.825
438.12	196.100
438.35	192.438
438.58	193.738
438.82	196.850
439.05	197.325
439.28	195.625
439.51	198.538
439.74	196.587
439.97	198.300
440.20	202.200
440.43	202.200
440.66	202.525
440.89	202.913
441.12	202.712
441.36	203.850
441.59	207.225
441.82	208.262
442.05	205.475
442.28	208.087
442.51	205.387
442.74	208.663
442.97	208.788
443.20	206.438
443.43	207.700
443.66	213.750
443.89	216.675
444.13	209.813
444.36	210.012
444.59	214.150
444.82	216.450
445.05	214.387
445.28	216.512
445.51	221.550
445.74	216.962
445.97	216.525
446.20	218.875
446.43	218.262
446.66	222.650
446.89	218.762
447.12	219.413
447.35	223.725
447.58	228.375
447.81	222.488
448.05	224.913
448.28	223.500
448.51	226.188
448.74	226.313
448.97	225.938
449.20	229.887
449.43	225.038
449.66	227.262
449.89	228.350
450.12	229.738
450.35	224.738
450.58	231.900
450.81	236.650
451.04	240.000
451.27	231.350
451.50	235.950
451.73	235.425
451.96	237.800
452.19	235.775
452.42	238.438
452.65	243.663
452.88	240.837
453.11	242.075
453.34	245.863
453.57	239.800
453.80	249.175
454.03	245.025
454.26	243.563
454.49	243.538
454.72	246.725
454.95	249.700
455.18	248.400
455.41	245.837
455.64	249.850
455.87	248.962
456.10	250.163
456.33	257.700
456.56	256.675
456.79	259.212
457.02	256.375
457.25	252.137
457.48	251.262
457.71	263.388
457.94	268.125
458.17	265.788
458.40	261.112
458.63	261.237
458.86	266.388
459.09	268.725
459.32	267.063
459.55	274.212
459.78	272.188
460.01	268.962
460.24	277.763
460.47	272.650
460.70	269.875
460.93	271.413
461.16	282.788
461.39	279.575
461.62	276.800
461.85	283.788
462.08	285.938
462.31	283.237
462.54	286.550
462.77	284.175
463.00	285.425
463.22	288.175
463.45	290.150
463.68	293.025
463.91	297.938
464.14	297.712
464.37	298.638
464.60	300.263
464.83	299.900
465.06	309.987
465.29	307.600
465.52	305.462
465.75	305.337
465.98	312.388
466.21	315.800
466.44	314.325
466.67	311.450
466.90	322.075
467.12	321.063
467.35	324.200
467.58	321.525
467.81	325.513
468.04	326.050
468.27	326.900
468.50	330.750
468.73	337.413
468.96	333.438
469.19	344.225
469.42	341.000
469.65	344.950
469.87	345.638
470.10	348.087
470.33	352.700
470.56	356.163
470.79	357.975
471.02	358.275
471.25	363.150
471.48	368.038
471.71	369.050
471.94	368.600
472.17	380.225
472.39	380.587
472.62	382.825
472.85	381.413
473.08	386.712
473.31	381.788
473.54	393.375
473.77	396.750
474.00	404.825
474.23	399.725
474.45	408.975
474.68	406.000
474.91	406.038
475.14	416.288
475.37	417.438
475.60	416.563
475.83	423.325
476.06	423.150
476.28	431.587
476.51	434.038
476.74	437.425
476.97	441.100
477.20	440.987
477.43	446.125
477.66	445.313
477.88	456.938
478.11	458.950
478.34	462.200
478.57	468.900
478.80	465.725
479.03	469.663
479.26	472.663
479.48	475.625
479.71	478.700
479.94	485.438
480.17	488.462
480.40	488.500
480.63	497.663
480.86	497.038
481.08	500.075
481.31	506.450
481.54	508.313
481.77	512.612
482.00	509.087
482.23	514.950
482.45	518.200
482.68	523.338
482.91	529.225
483.14	536.838
483.37	539.850
483.60	541.300
483.82	541.612
484.05	545.400
484.28	550.638
484.51	552.400
484.74	552.162
484.96	556.775
485.19	563.250
485.42	566.650
485.65	570.225
485.88	572.563
486.10	579.875
486.33	583.075
486.56	583.638
486.79	583.612
487.02	594.537
487.25	602.588
487.47	600.287
487.70	600.575
487.93	604.575
488.16	612.125
488.38	615.200
488.61	614.275
488.84	618.825
489.07	621.750
489.30	628.412
489.52	628.737
489.75	636.300
489.98	640.688
490.21	647.200
490.44	648.100
490.66	651.063
490.89	653.775
491.12	661.037
491.35	666.925
491.57	667.800
491.80	664.188
492.03	670.612
492.26	677.362
492.49	679.200
492.71	681.938
492.94	685.475
493.17	692.875
493.40	694.275
493.62	697.362
493.85	699.338
494.08	705.537
494.31	707.263
494.53	709.350
494.76	717.125
494.99	723.563
495.22	728.338
495.44	733.550
495.67	736.638
495.90	738.013
496.13	739.287
496.35	749.112
496.58	753.987
496.81	754.725
497.04	758.475
497.26	766.362
497.49	768.350
497.72	770.200
497.95	771.575
498.17	779.875
498.40	788.362
498.63	788.563
498.85	788.263
499.08	790.275
499.31	798.487
499.54	807.063
499.76	809.800
499.99	817.713
500.22	817.287
500.44	821.787
500.67	827.487
500.90	823.700
501.13	830.775
501.35	833.400
501.58	837.188
501.81	838.400
502.03	837.725
502.26	847.088
502.49	852.963
502.72	862.138
502.94	866.737
503.17	865.925
503.40	868.237
503.62	880.713
503.85	881.975
504.08	888.150
504.30	886.162
504.53	891.650
504.76	895.025
504.98	896.500
505.21	903.513
505.44	895.925
505.67	902.200
505.89	914.487
506.12	925.188
506.35	927.287
506.57	930.987
506.80	934.112
507.03	947.950
507.25	939.750
507.48	944.438
507.71	949.550
507.93	958.450
508.16	963.650
508.39	963.975
508.61	968.425
508.84	972.900
509.07	972.775
509.29	975.487
509.52	972.700
509.75	974.400
509.97	975.750
510.20	986.563
510.43	998.162
510.65	999.075
510.88	1003.938
511.10	1010.075
511.33	1017.875
511.56	1010.175
511.78	1010.588
512.01	1010.550
512.24	1016.275
512.46	1028.675
512.69	1029.250
512.92	1031.175
513.14	1029.262
513.37	1032.600
513.59	1039.137
513.82	1040.188
514.05	1037.200
514.27	1042.575
514.50	1050.000
514.73	1055.762
514.95	1060.912
515.18	1063.275
515.40	1065.637
515.63	1070.475
515.86	1075.338
516.08	1077.838
516.31	1080.313
516.54	1085.063
516.76	1089.475
516.99	1090.887
517.21	1094.213
517.44	1097.338
517.67	1099.037
517.89	1102.637
518.12	1122.188
518.34	1114.238
518.57	1109.350
518.80	1116.813
519.02	1113.262
519.25	1122.313
519.47	1129.463
519.70	1130.900
519.93	1127.175
520.15	1134.200
520.38	1129.650
520.60	1142.100
520.83	1139.600
521.05	1148.775
521.28	1149.537
521.51	1156.438
521.73	1168.613
521.96	1162.813
522.18	1162.600
522.41	1164.988
522.63	1170.150
522.86	1176.975
523.09	1183.037
523.31	1185.050
523.54	1190.637
523.76	1199.300
523.99	1194.438
524.21	1200.975
524.44	1199.412
524.67	1197.475
524.89	1206.650
525.12	1208.325
525.34	1216.963
525.57	1221.100
525.79	1217.800
526.02	1227.175
526.24	1231.662
526.47	1246.262
526.69	1248.463
526.92	1249.225
527.15	1249.000
527.37	1253.488
527.60	1269.575
527.82	1268.387
528.05	1273.688
528.27	1272.575
528.50	1273.850
528.72	1277.825
528.95	1281.137
529.17	1283.800
529.40	1286.625
529.62	1283.375
529.85	1291.063
530.07	1293.100
530.30	1293.063
530.52	1299.863
530.75	1305.350
530.97	1310.037
531.20	1323.475
531.43	1322.787
531.65	1332.725
531.88	1339.250
532.10	1335.850
532.33	1343.600
532.55	1344.600
532.78	1351.475
533.00	1350.537
533.23	1358.963
533.45	1361.863
533.68	1369.475
533.90	1376.875
534.13	1386.925
534.35	1395.125
534.58	1406.425
534.80	1412.912
535.03	1418.125
535.25	1415.125
535.47	1412.675
535.70	1412.925
535.92	1429.875
536.15	1416.813
536.37	1425.613
536.60	1437.875
536.82	1430.550
537.05	1436.412
537.27	1447.225
537.50	1453.613
537.72	1469.488
537.95	1480.738
538.17	1497.550
538.40	1500.375
538.62	1494.675
538.85	1502.950
539.07	1502.338
539.29	1503.225
539.52	1515.850
539.74	1531.100
539.97	1533.000
540.19	1532.025
540.42	1529.287
540.64	1539.275
540.87	1537.850
541.09	1543.950
541.32	1543.113
541.54	1546.438
541.76	1562.137
541.99	1576.438
542.21	1580.000
542.44	1596.988
542.66	1593.650
542.89	1602.463
543.11	1613.613
543.33	1625.463
543.56	1638.762
543.78	1639.762
544.01	1630.188
544.23	1642.850
544.46	1643.338
544.68	1652.225
544.90	1644.675
545.13	1650.425
545.35	1652.900
545.58	1667.800
545.80	1663.838
546.03	1681.975
546.25	1676.287
546.47	1678.613
546.70	1696.963
546.92	1696.900
547.15	1703.500
547.37	1706.675
547.59	1704.275
547.82	1715.125
548.04	1730.800
548.27	1738.825
548.49	1741.313
548.71	1747.475
548.94	1748.213
549.16	1755.113
549.39	1751.262
549.61	1757.088
549.83	1763.950
550.06	1759.625
550.28	1768.200
550.50	1776.213
550.73	1791.363
550.95	1787.025
551.18	1796.488
551.40	1795.300
551.62	1801.037
551.85	1807.213
552.07	1818.325
552.29	1815.762
552.52	1821.088
552.74	1819.125
552.97	1826.963
553.19	1835.625
553.41	1850.050
553.64	1847.188
553.86	1848.025
554.08	1836.975
554.31	1839.012
554.53	1844.425
554.75	1838.800
554.98	1856.850
555.20	1852.225
555.42	1860.850
555.65	1878.275
555.87	1869.875
556.10	1881.188
556.32	1892.813
556.54	1891.450
556.77	1888.238
556.99	1890.225
557.21	1888.075
557.44	1900.050
557.66	1901.675
557.88	1900.625
558.11	1898.738
558.33	1900.713
558.55	1902.775
558.78	1909.887
559.00	1895.613
559.22	1910.813
559.44	1911.300
559.67	1918.287
559.89	1913.375
560.11	1921.750
560.34	1931.588
560.56	1931.438
560.78	1936.137
561.01	1942.500
561.23	1944.650
561.45	1966.113
561.68	1959.488
561.90	1963.175
562.12	1970.500
562.35	1950.500
562.57	1972.088
562.79	1982.037
563.01	1967.162
563.24	1979.775
563.46	1984.787
563.68	1976.363
563.91	1979.575
564.13	1978.700
564.35	1996.200
564.57	1998.338
564.80	2000.150
565.02	2006.787
565.24	2016.387
565.47	2021.325
565.69	2026.950
565.91	2030.738
566.13	2022.850
566.36	2007.075
566.58	2010.387
566.80	2033.675
567.02	2043.575
567.25	2035.463
567.47	2037.275
567.69	2064.075
567.92	2051.025
568.14	2054.337
568.36	2066.100
568.58	2076.575
568.81	2076.975
569.03	2070.938
569.25	2079.300
569.47	2090.375
569.70	2090.750
569.92	2090.000
570.14	2094.275
570.36	2097.075
570.59	2090.788
570.81	2117.512
571.03	2121.488
571.25	2117.375
571.47	2129.025
571.70	2127.238
571.92	2123.500
572.14	2135.800
572.36	2134.063
572.59	2149.587
572.81	2167.012
573.03	2151.113
573.25	2167.413
573.48	2179.075
573.70	2186.188
573.92	2204.400
574.14	2206.275
574.36	2200.462
574.59	2183.837
574.81	2175.113
575.03	2167.450
575.25	2187.788
575.47	2205.462
575.70	2194.625
575.92	2199.438
576.14	2190.500
576.36	2215.800
576.59	2231.375
576.81	2229.975
577.03	2229.450
577.25	2233.000
577.47	2233.988
577.69	2241.400
577.92	2236.600
578.14	2247.925
578.36	2251.063
578.58	2257.012
578.80	2247.012
579.03	2245.813
579.25	2262.863
579.47	2280.650
579.69	2280.712
579.91	2300.525
580.14	2298.163
580.36	2309.788
580.58	2298.500
580.80	2308.000
581.02	2327.913
581.24	2319.288
581.47	2325.725
581.69	2335.238
581.91	2335.625
582.13	2349.188
582.35	2359.738
582.57	2374.650
582.79	2358.125
583.02	2352.813
583.24	2373.725
583.46	2367.938
583.68	2378.188
583.90	2387.712
584.12	2403.613
584.35	2420.413
584.57	2412.563
584.79	2430.200
585.01	2429.950
585.23	2422.175
585.45	2420.288
585.67	2424.262
585.90	2446.962
586.12	2434.400
586.34	2476.950
586.56	2479.375
586.78	2498.563
587.00	2478.512
587.22	2481.300
587.44	2486.738
587.67	2493.400
587.89	2493.500
588.11	2521.762
588.33	2506.413
588.55	2503.962
588.77	2515.150
588.99	2521.788
589.21	2508.438
589.43	2546.538
589.66	2565.000
589.88	2574.400
590.10	2585.563
590.32	2578.962
590.54	2562.375
590.76	2560.725
590.98	2573.250
591.20	2574.212
591.42	2558.813
591.64	2555.075
591.87	2581.137
592.09	2583.500
592.31	2620.050
592.53	2614.488
592.75	2611.587
592.97	2621.512
593.19	2612.650
593.41	2623.975
593.63	2632.563
593.85	2627.225
594.07	2659.438
594.29	2649.538
594.52	2660.275
594.74	2667.375
594.96	2650.725
595.18	2680.350
595.40	2690.238
595.62	2700.300
595.84	2706.837
596.06	2712.038
596.28	2718.325
596.50	2711.625
596.72	2705.587
596.94	2724.625
597.16	2739.538
597.38	2755.587
597.60	2748.450
597.82	2738.712
598.05	2735.387
598.27	2719.425
598.49	2725.375
598.71	2728.813
598.93	2737.438
599.15	2750.613
599.37	2742.375
599.59	2751.012
599.81	2749.887
600.03	2754.275
600.25	2770.275
600.47	2778.775
600.69	2769.950
600.91	2798.262
601.13	2797.175
601.35	2813.462
601.57	2833.600
601.79	2832.450
602.01	2848.125
602.23	2833.875
602.45	2830.613
602.67	2821.025
602.89	2808.788
603.11	2826.100
603.33	2818.475
603.55	2849.788
603.77	2856.650
603.99	2859.313
604.21	2861.250
604.43	2861.413
604.65	2859.637
604.87	2885.350
605.09	2876.137
605.31	2886.837
605.53	2872.325
605.75	2855.238
605.97	2846.613
606.19	2854.337
606.41	2860.025
606.63	2869.313
606.85	2884.637
607.07	2892.837
607.29	2917.075
607.51	2944.825
607.73	2939.525
607.95	2943.488
608.17	2938.575
608.39	2921.225
608.61	2931.813
608.83	2931.075
609.05	2930.887
609.27	2915.538
609.49	2920.825
609.71	2905.813
609.93	2931.012
610.15	2923.925
610.37	2940.387
610.59	2923.575
610.81	2946.137
611.03	2936.788
611.24	2944.913
611.46	2947.175
611.68	2947.462
611.90	2951.900
612.12	2936.038
612.34	2938.512
612.56	2973.000
612.78	2968.325
613.00	2978.063
613.22	2988.012
613.44	2992.425
613.66	2974.675
613.88	2968.288
614.10	2986.587
614.32	2981.325
614.54	3007.413
614.75	3001.712
614.97	2995.775
615.19	2994.275
615.41	2988.625
615.63	2987.988
615.85	3002.175
616.07	3006.700
616.29	3007.913
616.51	2998.475
616.73	2989.688
616.95	2989.750
617.17	3001.000
617.38	3004.688
617.60	3022.438
617.82	3034.188
618.04	3019.550
618.26	3029.613
618.48	3015.637
618.70	3049.125
618.92	3026.488
619.14	3055.675
619.36	3057.975
619.57	3042.387
619.79	3037.025
620.01	3032.313
620.23	3038.563
620.45	3058.087
620.67	3068.337
620.89	3062.913
621.11	3083.550
621.33	3102.813
621.54	3091.450
621.76	3089.200
621.98	3097.387
622.20	3120.837
622.42	3113.038
622.64	3127.038
622.86	3120.913
623.07	3084.012
623.29	3093.300
623.51	3088.175
623.73	3104.913
623.95	3101.475
624.17	3117.712
624.39	3105.675
624.60	3104.137
624.82	3084.712
625.04	3069.813
625.26	3098.075
625.48	3089.250
625.70	3115.188
625.92	3117.087
626.13	3123.400
626.35	3129.113
626.57	3103.700
626.79	3111.212
627.01	3093.738
627.23	3107.150
627.44	3131.700
627.66	3132.387
627.88	3127.900
628.10	3121.063
628.32	3127.738
628.54	3135.188
628.75	3142.863
628.97	3140.837
629.19	3169.925
629.41	3181.488
629.63	3184.475
629.84	3174.012
630.06	3161.725
630.28	3155.563
630.50	3177.675
630.72	3176.788
630.94	3190.800
631.15	3184.825
631.37	3183.075
631.59	3193.825
631.81	3180.337
632.03	3182.863
632.24	3198.475
632.46	3232.550
632.68	3219.375
632.90	3247.025
633.11	3218.137
633.33	3214.462
633.55	3213.825
633.77	3235.375
633.99	3221.413
634.20	3251.913
634.42	3228.600
634.64	3242.400
634.86	3220.925
635.08	3216.550
635.29	3223.675
635.51	3227.063
635.73	3244.413
635.95	3219.988
636.16	3218.075
636.38	3225.438
636.60	3196.813
636.82	3206.887
637.03	3203.212
637.25	3230.988
637.47	3242.950
637.69	3269.025
637.90	3255.000
638.12	3234.375
638.34	3228.488
638.56	3226.063
638.77	3233.525
638.99	3238.712
639.21	3254.063
639.43	3261.462
639.64	3255.600
639.86	3282.887
640.08	3244.887
640.30	3255.762
640.51	3267.887
640.73	3254.863
640.95	3275.825
641.17	3278.025
641.38	3316.575
641.60	3328.712
641.82	3333.750
642.03	3335.125
642.25	3339.288
642.47	3325.100
642.69	3346.000
642.90	3353.188
643.12	3337.863
643.34	3316.663
643.55	3317.000
643.77	3330.750
643.99	3331.675
644.21	3317.475
644.42	3333.613
644.64	3350.188
644.86	3356.775
645.07	3359.163
645.29	3362.300
645.51	3356.363
645.73	3337.212
645.94	3341.325
646.16	3363.313
646.38	3355.500
646.59	3364.413
646.81	3360.462
647.03	3333.825
647.24	3330.125
647.46	3334.250
647.68	3319.063
647.89	3320.850
648.11	3351.113
648.33	3376.563
648.54	3394.863
648.76	3396.337
648.98	3396.450
649.19	3374.850
649.41	3359.950
649.63	3360.525
649.84	3369.113
650.06	3367.363
650.28	3380.900
650.49	3374.313
650.71	3370.913
650.93	3361.887
651.14	3381.125
651.36	3380.250
651.58	3368.012
651.79	3391.712
652.01	3380.800
652.23	3403.738
652.44	3407.488
652.66	3420.375
652.88	3423.262
653.09	3422.538
653.31	3434.850
653.52	3464.425
653.74	3447.262
653.96	3454.150
654.17	3435.563
654.39	3456.625
654.61	3446.275
654.82	3422.712
655.04	3424.000
655.25	3430.500
655.47	3426.413
655.69	3436.200
655.90	3455.087
656.12	3437.587
656.34	3460.050
656.55	3454.012
656.77	3462.788
656.98	3453.125
657.20	3468.000
657.42	3462.875
657.63	3437.337
657.85	3447.000
658.06	3408.900
658.28	3414.688
658.50	3426.387
658.71	3417.375
658.93	3432.175
659.14	3458.637
659.36	3459.613
659.58	3473.450
659.79	3461.950
660.01	3455.962
660.22	3435.800
660.44	3432.925
660.65	3425.238
660.87	3430.800
661.09	3456.788
661.30	3460.400
661.52	3462.887
661.73	3450.988
661.95	3435.663
662.16	3410.012
662.38	3415.712
662.60	3417.563
662.81	3407.262
663.03	3436.363
663.24	3407.125
663.46	3427.863
663.67	3419.563
663.89	3417.663
664.11	3429.813
664.32	3428.762
664.54	3425.900
664.75	3439.025
664.97	3425.650
665.18	3428.825
665.40	3440.550
665.61	3441.125
665.83	3439.900
666.04	3452.238
666.26	3449.725
666.47	3465.663
666.69	3461.262
666.91	3477.762
667.12	3486.462
667.34	3472.650
667.55	3479.863
667.77	3438.675
667.98	3435.163
668.20	3426.500
668.41	3440.837
668.63	3467.087
668.84	3480.563
669.06	3448.788
669.27	3472.550
669.49	3460.875
669.70	3430.063
669.92	3450.750
670.13	3419.913
670.35	3428.525
670.56	3446.500
670.78	3450.512
670.99	3463.387
671.21	3435.600
671.42	3412.538
671.64	3413.150
671.85	3406.750
672.07	3430.300
672.28	3449.175
672.50	3464.462
672.71	3442.488
672.93	3453.262
673.14	3440.887
673.36	3440.913
673.57	3430.637
673.79	3409.837
674.00	3436.337
674.22	3456.350
674.43	3432.825
674.65	3454.725
674.86	3444.238
675.08	3427.438
675.29	3401.450
675.50	3402.262
675.72	3402.863
675.93	3416.163
676.15	3434.450
676.36	3442.762
676.58	3448.400
676.79	3430.413
677.01	3439.038
677.22	3422.788
677.44	3427.600
677.65	3431.163
677.86	3419.788
678.08	3434.212
678.29	3437.563
678.51	3423.012
678.72	3411.325
678.94	3386.613
679.15	3356.012
679.37	3376.563
679.58	3373.275
679.79	3370.750
680.01	3381.050
680.22	3412.988
680.44	3420.100
680.65	3399.075
680.87	3364.950
681.08	3366.512
681.29	3357.212
681.51	3336.450
681.72	3363.125
681.94	3343.512
682.15	3357.875
682.36	3353.288
682.58	3353.900
682.79	3327.950
683.01	3332.938
683.22	3371.225
683.43	3350.950
683.65	3353.350
683.86	3344.288
684.08	3336.238
684.29	3359.925
684.50	3350.188
684.72	3335.800
684.93	3345.762
685.15	3326.075
685.36	3344.775
685.57	3343.863
685.79	3346.413
686.00	3311.375
686.22	3308.825
686.43	3306.288
686.64	3299.313
686.86	3287.637
687.07	3280.125
687.28	3276.325
687.50	3276.350
687.71	3270.887
687.93	3297.850
688.14	3299.512
688.35	3297.988
688.57	3329.050
688.78	3345.450
688.99	3338.137
689.21	3331.113
689.42	3281.738
689.63	3294.925
689.85	3297.813
690.06	3303.300
690.27	3296.050
690.49	3285.988
690.70	3275.850
690.91	3284.288
691.13	3294.063
691.34	3300.375
691.56	3286.750
691.77	3286.988
691.98	3301.813
692.20	3295.775
692.41	3297.063
692.62	3295.050
692.83	3256.750
693.05	3270.863
693.26	3226.712
693.47	3206.200
693.69	3239.012
693.90	3213.637
694.11	3238.550
694.33	3255.625
694.54	3273.212
694.75	3262.425
694.97	3259.837
695.18	3233.550
695.39	3206.688
695.61	3178.688
695.82	3169.288
696.03	3148.563
696.24	3176.025
696.46	3142.387
696.67	3172.325
696.88	3178.525
697.10	3159.175
697.31	3161.600
697.52	3161.712
697.74	3129.025
697.95	3164.350
698.16	3160.150
698.37	3184.900
698.59	3199.712
698.80	3210.137
699.01	3184.000
699.23	3181.163
699.44	3173.000
699.65	3171.438
699.86	3167.275
700.08	3173.950
700.29	3185.550
700.50	3175.575
700.71	3199.962
700.93	3163.288
701.14	3166.137
701.35	3156.712
701.56	3163.663
701.78	3178.837
701.99	3173.925
702.20	3187.200
702.41	3204.762
702.63	3166.488
702.84	3177.837
703.05	3187.375
703.26	3170.988
703.48	3158.725
703.69	3132.438
703.90	3132.175
704.11	3114.800
704.33	3136.225
704.54	3160.375
704.75	3137.900
704.96	3139.063
705.18	3145.875
705.39	3108.288
705.60	3110.613
705.81	3100.038
706.02	3062.700
706.24	3092.438
706.45	3092.750
706.66	3093.075
706.87	3094.575
707.09	3093.587
707.30	3102.400
707.51	3107.887
707.72	3125.688
707.93	3122.200
708.15	3107.000
708.36	3116.813
708.57	3085.288
708.78	3094.413
708.99	3085.038
709.21	3124.975
709.42	3128.188
709.63	3114.212
709.84	3095.512
710.05	3071.837
710.27	3042.925
710.48	3038.250
710.69	3074.725
710.90	3053.262
711.11	3056.525
711.32	3073.262
711.54	3044.337
711.75	3017.337
711.96	3003.462
712.17	3006.100
712.38	3032.700
712.59	3018.425
712.81	3022.700
713.02	3016.712
713.23	3033.025
713.44	3034.000
713.65	3050.688
713.86	3033.325
714.08	3025.575
714.29	2998.525
714.50	2991.762
714.71	2962.587
714.92	2939.450
715.13	2950.775
715.34	2949.100
715.56	2955.512
715.77	2959.288
715.98	2980.587
716.19	2963.025
716.40	2972.212
716.61	2972.512
716.82	2931.450
717.04	2929.550
717.25	2918.350
717.46	2945.738
717.67	2951.462
717.88	2955.200
718.09	2965.775
718.30	2954.950
718.51	2939.925
718.73	2930.512
718.94	2918.000
719.15	2889.350
719.36	2882.488
719.57	2879.350
719.78	2892.050
719.99	2887.775
720.20	2902.000
720.41	2895.550
720.63	2879.762
720.84	2877.425
721.05	2880.262
721.26	2882.563
721.47	2885.625
721.68	2898.900
721.89	2884.887
722.10	2884.688
722.31	2893.775
722.52	2889.012
722.73	2884.587
722.95	2898.575
723.16	2888.225
723.37	2877.250
723.58	2859.438
723.79	2817.100
724.00	2850.500
724.21	2850.663
724.42	2894.063
724.63	2873.813
724.84	2899.275
725.05	2881.625
725.26	2858.863
725.47	2858.637
725.68	2841.688
725.90	2834.087
726.11	2816.637
726.32	2831.175
726.53	2832.813
726.74	2837.087
726.95	2830.587
727.16	2865.200
727.37	2832.550
727.58	2838.712
727.79	2803.775
728.00	2793.075
728.21	2790.762
728.42	2796.413
728.63	2804.925
728.84	2803.100
729.05	2783.275
729.26	2780.938
729.47	2764.438
729.68	2772.887
729.89	2769.925
730.10	2774.788
730.31	2775.425
730.52	2776.625
730.73	2766.688
730.94	2785.438
731.15	2758.950
731.36	2750.313
731.57	2768.512
731.78	2766.113
731.99	2742.363
732.20	2750.212
732.41	2740.925
732.62	2729.375
732.83	2739.938
733.04	2736.675
733.25	2735.988
733.46	2729.425
733.67	2735.625
733.88	2728.087
734.09	2729.488
734.30	2699.825
734.51	2679.688
734.72	2675.363
734.93	2671.275
735.14	2668.300
735.35	2670.238
735.56	2684.087
735.77	2712.800
735.98	2712.800
736.19	2709.475
736.40	2716.200
736.61	2697.462
736.82	2685.950
737.03	2663.900
737.24	2648.962
737.45	2650.613
737.66	2641.238
737.87	2647.700
738.08	2659.337
738.29	2661.538
738.50	2652.538
738.71	2674.938
738.92	2659.137
739.13	2642.788
739.34	2632.525
739.55	2625.712
739.75	2634.637
739.96	2646.925
740.17	2634.800
740.38	2614.950
740.59	2608.025
740.80	2618.975
741.01	2588.538
741.22	2586.887
741.43	2577.125
741.64	2549.113
741.85	2559.387
742.06	2577.887
742.27	2575.988
742.48	2573.387
742.68	2568.563
742.89	2565.825
743.10	2587.850
743.31	2575.675
743.52	2558.887
743.73	2544.300
743.94	2532.163
744.15	2525.288
744.36	2530.825
744.57	2519.300
744.78	2528.913
744.98	2521.387
745.19	2525.188
745.40	2521.413
745.61	2512.150
745.82	2517.137
746.03	2506.400
746.24	2491.613
746.45	2492.313
746.66	2498.087
746.86	2493.125
747.07	2490.288
747.28	2479.700
747.49	2463.613
747.70	2451.688
747.91	2456.587
748.12	2438.563
748.33	2462.863
748.53	2451.225
748.74	2457.637
748.95	2474.575
749.16	2481.450
749.37	2460.913
749.58	2480.450
749.79	2473.438
749.99	2479.675
750.20	2457.250
750.41	2467.075
750.62	2450.050
750.83	2451.050
751.04	2446.075
751.25	2450.650
751.45	2438.613
751.66	2461.550
751.87	2471.800
752.08	2458.175
752.29	2457.750
752.50	2441.375
752.70	2429.950
752.91	2425.587
753.12	2400.025
753.33	2382.387
753.54	2376.800
753.75	2372.762
753.95	2376.688
754.16	2388.750
754.37	2380.288
754.58	2380.825
754.79	2367.188
754.99	2381.125
755.20	2370.025
755.41	2366.962
755.62	2357.288
755.83	2324.300
756.04	2325.488
756.24	2323.375
756.45	2352.663
756.66	2342.887
756.87	2364.238
757.07	2358.063
757.28	2354.087
757.49	2337.600
757.70	2340.012
757.91	2336.587
758.11	2320.175
758.32	2322.712
758.53	2307.700
758.74	2317.125
758.95	2312.550
759.15	2293.750
759.36	2296.275
759.57	2308.100
759.78	2306.163
759.98	2293.725
760.19	2283.313
760.40	2290.000
760.61	2264.938
760.81	2275.637
761.02	2261.825
761.23	2274.425
761.44	2258.300
761.65	2270.375
761.85	2265.238
762.06	2257.863
762.27	2257.600
762.48	2240.137
762.68	2240.275
762.89	2233.563
763.10	2211.637
763.31	2221.837
763.51	2177.738
763.72	2189.475
763.93	2175.962
764.13	2182.200
764.34	2185.637
764.55	2186.125
764.76	2184.788
764.96	2173.825
765.17	2178.000
765.38	2189.387
765.59	2165.725
765.79	2160.813
766.00	2163.837
766.21	2150.663
766.41	2162.038
766.62	2163.863
766.83	2181.863
767.04	2181.725
767.24	2179.337
767.45	2178.775
767.66	2148.900
767.86	2147.650
768.07	2140.637
768.28	2136.313
768.48	2122.825
768.69	2128.663
768.90	2136.262
769.11	2134.238
769.31	2146.488
769.52	2144.863
769.73	2132.063
769.93	2123.550
770.14	2104.475
770.35	2102.238
770.55	2102.975
770.76	2098.725
770.97	2074.863
771.17	2078.462
771.38	2077.350
771.59	2091.387
771.79	2102.262
772.00	2082.637
772.21	2088.850
772.41	2084.100
772.62	2078.538
772.83	2052.150
773.03	2052.938
773.24	2031.838
773.45	2042.375
773.65	2039.213
773.86	2027.863
774.07	2036.838
774.27	2051.900
774.48	2042.338
774.68	2032.988
774.89	2042.637
775.10	2035.213
775.30	2024.075
775.51	2041.600
775.72	2026.075
775.92	2024.325
776.13	2026.637
776.34	2022.463
776.54	2015.762
776.75	2008.938
776.95	2010.350
777.16	2010.150
777.37	2002.800
777.57	1975.525
777.78	1976.313
777.99	1961.813
778.19	1963.463
778.40	1948.938
778.60	1944.887
778.81	1939.387
779.02	1949.037
779.22	1914.063
779.43	1927.488
779.63	1944.588
779.84	1933.613
780.05	1938.400
780.25	1923.912
780.46	1935.438
780.66	1912.650
780.87	1917.725
781.07	1908.088
781.28	1909.238
781.49	1899.575
781.69	1899.000
781.90	1900.450
782.10	1903.313
782.31	1908.375
782.52	1911.313
782.72	1881.675
782.93	1877.325
783.13	1851.537
783.34	1827.825
783.54	1806.713
783.75	1815.100
783.95	1824.275
784.16	1832.137
784.37	1825.813
784.57	1837.137
784.78	1842.012
784.98	1840.625
785.19	1847.975
785.39	1847.825
785.60	1830.363
785.80	1826.537
786.01	1819.900
786.22	1814.613
786.42	1817.325
786.63	1821.375
786.83	1807.813
787.04	1816.400
787.24	1843.275
787.45	1816.813
787.65	1820.963
787.86	1812.787
788.06	1812.088
788.27	1803.313
788.47	1798.813
788.68	1775.637
788.88	1764.387
789.09	1756.662
789.29	1757.338
789.50	1759.225
789.70	1772.363
789.91	1780.475
790.11	1764.500
790.32	1772.662
790.52	1786.012
790.73	1774.262
790.93	1763.175
791.14	1748.588
791.34	1734.450
791.55	1711.800
791.75	1706.863
791.96	1713.150
792.16	1712.400
792.37	1705.988
792.57	1730.838
792.78	1728.863
792.98	1728.725
793.19	1727.025
793.39	1725.713
793.60	1717.100
793.80	1697.675
794.01	1685.150
794.21	1682.813
794.42	1676.537
794.62	1676.162
794.83	1675.588
795.03	1686.800
795.23	1690.200
795.44	1686.012
795.64	1700.525
795.85	1701.963
796.05	1672.750
796.26	1668.963
796.46	1678.113
796.67	1671.425
796.87	1659.088
797.08	1664.925
797.28	1663.125
797.48	1646.225
797.69	1652.963
797.89	1640.387
798.10	1639.300
798.30	1635.887
798.51	1639.938
798.71	1621.900
798.91	1621.213
799.12	1619.338
799.32	1603.325
799.53	1605.438
799.73	1596.375
799.94	1610.887
800.14	1597.125
800.34	1602.688
800.55	1610.088
800.75	1602.563
800.96	1598.313
801.16	1588.300
801.36	1585.213
801.57	1568.588
801.77	1558.900
801.98	1569.863
802.18	1558.825
802.38	1547.088
802.59	1550.012
802.79	1542.100
803.00	1546.650
803.20	1539.775
803.40	1538.650
803.61	1548.200
803.81	1542.238
804.02	1532.525
804.22	1531.350
804.42	1533.438
804.63	1521.162
804.83	1511.988
805.03	1513.700
805.24	1511.350
805.44	1509.425
805.64	1505.875
805.85	1504.800
806.05	1497.762
806.26	1494.400
806.46	1483.875
806.66	1482.137
806.87	1479.225
807.07	1469.863
807.27	1465.262
807.48	1468.213
807.68	1469.287
807.88	1457.525
808.09	1450.125
808.29	1448.625
808.49	1450.537
808.70	1439.537
808.90	1436.262
809.10	1443.037
809.31	1444.800
809.51	1432.963
809.71	1440.488
809.92	1419.825
810.12	1404.188
810.32	1398.200
810.53	1384.950
810.73	1388.350
810.93	1376.012
811.14	1377.313
811.34	1378.375
811.54	1387.300
811.75	1381.650
811.95	1377.000
812.15	1360.475
812.36	1349.787
812.56	1342.537
812.76	1330.412
812.96	1314.713
813.17	1299.088
813.37	1293.300
813.57	1279.838
813.78	1275.037
813.98	1286.037
814.18	1278.938
814.38	1279.037
814.59	1280.438
814.79	1271.537
814.99	1264.025
815.20	1250.650
815.40	1250.575
815.60	1234.150
815.80	1230.975
816.01	1207.575
816.21	1202.387
816.41	1187.688
816.61	1179.100
816.82	1175.875
817.02	1165.875
817.22	1158.488
817.43	1154.637
817.63	1152.363
817.83	1146.800
818.03	1143.000
818.24	1136.938
818.44	1122.488
818.64	1112.188
818.84	1105.037
819.05	1096.363
819.25	1082.338
819.45	1082.488
819.65	1070.488
819.85	1057.800
820.06	1054.287
820.26	1048.188
820.46	1039.988
820.66	1025.175
820.87	1021.225
821.07	1011.763
821.27	1000.375
821.47	989.500
821.68	978.525
821.88	971.487
822.08	956.475
822.28	951.763
>>>>>End Spectral Data<<<<<
