OOIBase32 Version 2.0.1.4 Data File
++++++++++++++++++++++++++++++++++++
Date: 11-03-2025, 09:48:19
User: Valued Ocean Optics Customer
Spectrometer Serial Number: HR2B216
Spectrometer Channel: Master
Integration Time (msec): 5
Spectra Averaged: 80
Boxcar Smoothing: 0
Correct for Electrical Dark: Disabled
Time Normalized: Disabled
Dual-beam Reference: Disabled
Reference Channel: Master
Temperature: Not acquired
Spectrometer Type: S2000
ADC Type: HR2000
Number of Pixels in File: 2048
Graph Title: 
>>>>>Begin Spectral Data<<<<<
373.12	0.000
373.35	121.713
373.59	122.075
373.82	122.863
374.06	123.725
374.29	125.700
374.53	125.625
374.76	126.637
375.00	128.175
375.23	128.900
375.47	129.350
375.70	129.450
375.94	130.050
376.17	130.738
376.40	130.600
376.64	131.438
376.87	131.188
377.11	130.925
377.34	130.925
377.58	131.163
377.81	130.775
378.05	131.200
378.28	130.313
378.52	131.063
378.75	131.113
378.99	130.375
379.22	130.525
379.45	131.413
379.69	131.113
379.92	131.363
380.16	131.238
380.39	131.587
380.63	131.488
380.86	132.025
381.10	131.788
381.33	131.400
381.56	131.225
381.80	132.250
382.03	132.313
382.27	132.100
382.50	132.000
382.74	131.875
382.97	131.387
383.21	131.563
383.44	131.863
383.67	131.738
383.91	131.150
384.14	132.488
384.38	132.563
384.61	132.462
384.84	132.637
385.08	133.087
385.31	132.613
385.55	132.650
385.78	132.938
386.02	132.938
386.25	132.200
386.48	132.688
386.72	132.813
386.95	132.225
387.19	132.637
387.42	132.900
387.65	133.425
387.89	133.075
388.12	132.700
388.36	133.000
388.59	132.813
388.82	133.025
389.06	133.587
389.29	133.738
389.53	133.250
389.76	133.400
389.99	133.275
390.23	133.475
390.46	133.400
390.70	133.500
390.93	133.563
391.16	133.462
391.40	133.938
391.63	133.875
391.87	134.063
392.10	134.100
392.33	133.825
392.57	133.950
392.80	133.625
393.03	134.300
393.27	134.038
393.50	134.400
393.74	134.288
393.97	134.725
394.20	134.250
394.44	134.625
394.67	134.837
394.90	134.325
395.14	133.438
395.37	134.300
395.60	134.200
395.84	134.337
396.07	134.087
396.31	134.225
396.54	134.475
396.77	134.825
397.01	134.613
397.24	134.975
397.47	135.225
397.71	135.113
397.94	134.837
398.17	135.663
398.41	134.688
398.64	134.875
398.87	134.587
399.11	135.475
399.34	134.900
399.57	135.200
399.81	134.988
400.04	134.988
400.27	135.163
400.51	134.875
400.74	134.975
400.97	135.012
401.21	134.850
401.44	135.363
401.67	135.087
401.91	135.762
402.14	135.813
402.37	135.525
402.61	135.637
402.84	135.825
403.07	135.938
403.31	136.250
403.54	135.788
403.77	135.600
404.00	135.875
404.24	136.225
404.47	136.212
404.70	136.863
404.94	135.650
405.17	135.825
405.40	136.063
405.64	135.825
405.87	136.175
406.10	136.075
406.34	135.313
406.57	136.075
406.80	136.238
407.03	136.188
407.27	136.288
407.50	135.975
407.73	135.825
407.97	135.900
408.20	135.950
408.43	136.363
408.66	136.475
408.90	136.725
409.13	136.462
409.36	136.288
409.60	136.425
409.83	136.775
410.06	136.863
410.29	136.988
410.53	136.975
410.76	137.025
410.99	137.212
411.22	137.325
411.46	137.500
411.69	137.325
411.92	136.337
412.16	137.325
412.39	137.488
412.62	137.438
412.85	137.125
413.09	137.238
413.32	137.700
413.55	137.750
413.78	137.587
414.02	138.250
414.25	138.050
414.48	138.762
414.71	138.163
414.95	138.363
415.18	138.075
415.41	138.863
415.64	138.038
415.88	139.012
416.11	139.100
416.34	139.063
416.57	139.425
416.80	139.275
417.04	139.613
417.27	139.663
417.50	139.663
417.73	140.825
417.97	140.863
418.20	140.813
418.43	140.950
418.66	141.325
418.90	141.525
419.13	141.925
419.36	142.025
419.59	142.712
419.82	142.512
420.06	143.188
420.29	142.475
420.52	143.887
420.75	144.100
420.98	144.450
421.22	144.450
421.45	145.625
421.68	145.875
421.91	146.025
422.15	145.850
422.38	146.938
422.61	146.775
422.84	149.200
423.07	148.900
423.31	149.375
423.54	151.238
423.77	150.400
424.00	151.337
424.23	152.637
424.46	153.900
424.70	154.575
424.93	153.438
425.16	156.475
425.39	155.837
425.62	157.975
425.86	158.413
426.09	159.250
426.32	159.975
426.55	161.563
426.78	162.850
427.01	163.150
427.25	165.200
427.48	167.675
427.71	166.738
427.94	168.887
428.17	171.225
428.40	173.425
428.64	172.387
428.87	174.825
429.10	178.137
429.33	179.813
429.56	180.813
429.79	185.488
430.03	182.913
430.26	186.725
430.49	186.025
430.72	192.663
430.95	193.175
431.18	197.387
431.42	198.688
431.65	203.288
431.88	207.000
432.11	207.525
432.34	206.500
432.57	211.988
432.80	216.100
433.04	216.175
433.27	223.850
433.50	224.712
433.73	231.087
433.96	234.462
434.19	242.475
434.42	245.188
434.65	248.762
434.89	248.712
435.12	255.950
435.35	261.350
435.58	266.150
435.81	267.450
436.04	273.075
436.27	282.788
436.50	283.450
436.74	291.475
436.97	292.025
437.20	300.200
437.43	304.275
437.66	316.900
437.89	322.712
438.12	337.075
438.35	332.375
438.58	341.288
438.82	353.175
439.05	366.050
439.28	364.438
439.51	379.900
439.74	378.750
439.97	392.587
440.20	413.650
440.43	422.862
440.66	432.850
440.89	437.587
441.12	448.013
441.36	461.100
441.59	483.813
441.82	504.337
442.05	497.688
442.28	517.713
442.51	511.763
442.74	541.313
442.97	552.662
443.20	548.300
443.43	570.700
443.66	612.388
443.89	640.675
444.13	616.575
444.36	636.088
444.59	672.350
444.82	703.487
445.05	702.513
445.28	737.013
445.51	778.550
445.74	761.800
445.97	772.188
446.20	807.313
446.43	823.612
446.66	861.188
446.89	853.813
447.12	871.825
447.35	917.950
447.58	985.650
447.81	934.763
448.05	980.463
448.28	971.438
448.51	1014.638
448.74	1020.100
448.97	1032.863
449.20	1086.213
449.43	1046.225
449.66	1067.863
449.89	1087.863
450.12	1116.762
450.35	1056.738
450.58	1133.300
450.81	1184.525
451.04	1217.950
451.27	1124.387
451.50	1161.912
451.73	1152.975
451.96	1173.838
452.19	1139.637
452.42	1152.550
452.65	1192.037
452.88	1154.338
453.11	1145.825
453.34	1167.938
453.57	1095.475
453.80	1152.400
454.03	1096.750
454.26	1050.175
454.49	1039.025
454.72	1042.975
454.95	1042.287
455.18	1004.037
455.41	959.838
455.64	967.025
455.87	929.925
456.10	919.925
456.33	931.688
456.56	907.412
456.79	891.638
457.02	845.825
457.25	795.112
457.48	771.750
457.71	807.013
457.94	805.263
458.17	768.675
458.40	726.662
458.63	708.688
458.86	712.875
459.09	696.925
459.32	673.963
459.55	688.575
459.78	661.112
460.01	637.325
460.24	654.213
460.47	622.175
460.70	599.037
460.93	592.700
461.16	619.412
461.39	598.638
461.62	578.000
461.85	586.400
462.08	582.400
462.31	563.638
462.54	563.700
462.77	551.150
463.00	546.987
463.22	548.450
463.45	549.725
463.68	542.013
463.91	548.338
464.14	540.263
464.37	535.588
464.60	535.088
464.83	523.925
465.06	541.475
465.29	529.787
465.52	521.850
465.75	514.200
465.98	520.987
466.21	522.425
466.44	511.413
466.67	497.700
466.90	512.813
467.12	503.700
467.35	500.788
467.58	487.438
467.81	488.763
468.04	481.337
468.27	475.413
468.50	474.788
468.73	477.737
468.96	461.650
469.19	470.575
469.42	456.487
469.65	454.425
469.87	443.950
470.10	439.663
470.33	437.550
470.56	433.638
470.79	428.313
471.02	422.263
471.25	420.188
471.48	417.950
471.71	411.688
471.94	401.263
472.17	404.600
472.39	398.775
472.62	391.425
472.85	384.400
473.08	381.550
473.31	371.225
473.54	375.237
473.77	371.212
474.00	372.163
474.23	360.263
474.45	361.763
474.68	352.663
474.91	347.462
475.14	350.388
475.37	343.950
475.60	342.212
475.83	342.237
476.06	338.587
476.28	338.350
476.51	336.063
476.74	332.288
476.97	330.550
477.20	328.525
477.43	327.375
477.66	324.000
477.88	326.737
478.11	325.125
478.34	322.462
478.57	323.025
478.80	319.825
479.03	320.550
479.26	320.737
479.48	320.075
479.71	319.538
479.94	320.337
480.17	319.388
480.40	317.575
480.63	321.050
480.86	318.438
481.08	318.375
481.31	320.413
481.54	321.175
481.77	321.875
482.00	318.737
482.23	321.375
482.45	320.737
482.68	320.712
482.91	321.462
483.14	322.212
483.37	321.650
483.60	321.675
483.82	321.975
484.05	322.900
484.28	324.288
484.51	325.138
484.74	324.763
484.96	324.513
485.19	325.288
485.42	325.612
485.65	326.063
485.88	325.775
486.10	329.050
486.33	329.313
486.56	329.163
486.79	329.138
487.02	331.388
487.25	334.063
487.47	333.325
487.70	334.413
487.93	335.750
488.16	338.712
488.38	339.325
488.61	338.862
488.84	341.712
489.07	341.462
489.30	344.612
489.52	345.575
489.75	348.212
489.98	347.725
490.21	353.250
490.44	354.650
490.66	357.362
490.89	359.800
491.12	361.212
491.35	364.925
491.57	367.125
491.80	368.538
492.03	374.063
492.26	378.413
492.49	381.013
492.71	385.275
492.94	386.050
493.17	392.275
493.40	396.063
493.62	401.750
493.85	403.425
494.08	409.800
494.31	414.375
494.53	419.350
494.76	423.050
494.99	431.175
495.22	435.737
495.44	440.375
495.67	447.112
495.90	452.450
496.13	456.438
496.35	463.525
496.58	471.063
496.81	475.925
497.04	481.775
497.26	488.175
497.49	494.350
497.72	502.525
497.95	508.038
498.17	515.525
498.40	524.375
498.63	531.188
498.85	535.763
499.08	544.050
499.31	552.362
499.54	562.662
499.76	568.225
499.99	579.412
500.22	582.713
500.44	591.763
500.67	601.588
500.90	606.862
501.13	616.362
501.35	626.013
501.58	635.338
501.81	642.975
502.03	648.338
502.26	659.875
502.49	667.213
502.72	679.938
502.94	692.438
503.17	698.487
503.40	705.287
503.62	717.875
503.85	724.938
504.08	739.438
504.30	745.450
504.53	754.825
504.76	762.237
504.98	773.838
505.21	786.362
505.44	788.412
505.67	799.450
505.89	812.438
506.12	824.813
506.35	834.213
506.57	842.638
506.80	849.175
507.03	868.112
507.25	867.013
507.48	880.112
507.71	888.688
507.93	905.175
508.16	913.888
508.39	919.325
508.61	930.813
508.84	940.025
509.07	948.975
509.29	960.200
509.52	967.350
509.75	976.063
509.97	985.400
510.20	997.650
510.43	1010.850
510.65	1016.037
510.88	1020.287
511.10	1037.075
511.33	1050.412
511.56	1053.463
511.78	1064.588
512.01	1073.125
512.24	1082.000
512.46	1099.300
512.69	1104.188
512.92	1112.662
513.14	1119.488
513.37	1129.162
513.59	1140.450
513.82	1147.050
514.05	1152.688
514.27	1161.688
514.50	1176.363
514.73	1186.438
514.95	1195.700
515.18	1198.750
515.40	1207.975
515.63	1216.425
515.86	1227.475
516.08	1235.475
516.31	1244.750
516.54	1252.787
516.76	1259.950
516.99	1264.762
517.21	1276.613
517.44	1283.588
517.67	1287.662
517.89	1291.525
518.12	1315.975
518.34	1313.338
518.57	1316.213
518.80	1331.887
519.02	1333.813
519.25	1343.925
519.47	1352.113
519.70	1363.137
519.93	1363.238
520.15	1379.725
520.38	1377.975
520.60	1391.650
520.83	1389.400
521.05	1400.250
521.28	1401.887
521.51	1414.012
521.73	1427.938
521.96	1429.550
522.18	1430.050
522.41	1442.525
522.63	1445.613
522.86	1452.700
523.09	1462.950
523.31	1464.325
523.54	1465.700
523.76	1482.438
523.99	1478.450
524.21	1490.650
524.44	1499.162
524.67	1502.475
524.89	1512.938
525.12	1513.300
525.34	1518.425
525.57	1525.325
525.79	1525.550
526.02	1533.100
526.24	1536.813
526.47	1553.825
526.69	1551.012
526.92	1559.200
527.15	1559.438
527.37	1566.438
527.60	1588.813
527.82	1584.225
528.05	1590.800
528.27	1595.175
528.50	1603.675
528.72	1610.838
528.95	1620.938
529.17	1630.537
529.40	1633.750
529.62	1633.675
529.85	1641.500
530.07	1647.338
530.30	1650.400
530.52	1659.588
530.75	1662.563
530.97	1667.050
531.20	1675.313
531.43	1677.613
531.65	1684.363
531.88	1695.425
532.10	1691.325
532.33	1700.950
532.55	1708.662
532.78	1714.738
533.00	1716.537
533.23	1725.662
533.45	1723.850
533.68	1733.075
533.90	1738.725
534.13	1751.262
534.35	1750.100
534.58	1763.775
534.80	1762.475
535.03	1772.338
535.25	1778.162
535.47	1775.713
535.70	1784.975
535.92	1800.162
536.15	1786.150
536.37	1801.313
536.60	1818.938
536.82	1813.825
537.05	1816.188
537.27	1826.863
537.50	1832.700
537.72	1845.287
537.95	1845.137
538.17	1861.363
538.40	1865.400
538.62	1860.925
538.85	1867.387
539.07	1870.225
539.29	1867.825
539.52	1876.887
539.74	1896.012
539.97	1904.588
540.19	1901.787
540.42	1903.550
540.64	1920.550
540.87	1914.063
541.09	1921.200
541.32	1928.438
541.54	1932.738
541.76	1938.250
541.99	1944.438
542.21	1944.438
542.44	1960.863
542.66	1961.650
542.89	1971.725
543.11	1970.463
543.33	1984.475
543.56	1998.400
543.78	2005.088
544.01	1995.563
544.23	2015.912
544.46	2018.750
544.68	2031.900
544.90	2024.063
545.13	2026.537
545.35	2027.475
545.58	2045.400
545.80	2041.225
546.03	2060.337
546.25	2047.500
546.47	2044.137
546.70	2065.038
546.92	2066.413
547.15	2068.250
547.37	2068.875
547.59	2074.750
547.82	2081.837
548.04	2092.988
548.27	2099.925
548.49	2104.462
548.71	2106.450
548.94	2106.625
549.16	2116.313
549.39	2112.462
549.61	2116.913
549.83	2128.688
550.06	2122.700
550.28	2127.300
550.50	2131.238
550.73	2149.875
550.95	2147.563
551.18	2148.350
551.40	2144.462
551.62	2151.375
551.85	2153.825
552.07	2161.625
552.29	2156.512
552.52	2173.925
552.74	2174.150
552.97	2177.225
553.19	2178.262
553.41	2190.337
553.64	2183.413
553.86	2198.238
554.08	2191.850
554.31	2191.563
554.53	2194.800
554.75	2188.512
554.98	2204.288
555.20	2197.300
555.42	2194.075
555.65	2204.850
555.87	2194.450
556.10	2214.350
556.32	2224.962
556.54	2227.475
556.77	2226.563
556.99	2222.925
557.21	2220.450
557.44	2235.375
557.66	2231.738
557.88	2228.988
558.11	2224.875
558.33	2229.800
558.55	2239.900
558.78	2248.688
559.00	2236.087
559.22	2252.087
559.44	2252.100
559.67	2250.275
559.89	2246.150
560.11	2250.837
560.34	2255.137
560.56	2254.675
560.78	2254.925
561.01	2258.688
561.23	2256.675
561.45	2275.962
561.68	2267.813
561.90	2275.800
562.12	2289.212
562.35	2263.575
562.57	2281.625
562.79	2287.875
563.01	2270.163
563.24	2278.350
563.46	2281.313
563.68	2278.225
563.91	2283.837
564.13	2284.975
564.35	2300.050
564.57	2292.038
564.80	2287.563
565.02	2287.262
565.24	2287.988
565.47	2285.900
565.69	2299.025
565.91	2304.550
566.13	2303.175
566.36	2291.850
566.58	2295.462
566.80	2310.500
567.02	2318.200
567.25	2302.938
567.47	2305.375
567.69	2333.212
567.92	2315.688
568.14	2317.038
568.36	2324.813
568.58	2335.087
568.81	2335.750
569.03	2325.012
569.25	2330.337
569.47	2335.313
569.70	2340.550
569.92	2337.550
570.14	2342.550
570.36	2341.275
570.59	2326.087
570.81	2348.738
571.03	2347.575
571.25	2344.637
571.47	2360.738
571.70	2361.150
571.92	2366.075
572.14	2369.913
572.36	2360.725
572.59	2365.275
572.81	2380.038
573.03	2363.512
573.25	2370.962
573.48	2373.837
573.70	2369.100
573.92	2383.637
574.14	2383.663
574.36	2383.450
574.59	2383.800
574.81	2386.538
575.03	2372.238
575.25	2387.875
575.47	2410.387
575.70	2400.925
575.92	2410.125
576.14	2392.762
576.36	2410.538
576.59	2419.738
576.81	2416.800
577.03	2420.063
577.25	2415.738
577.47	2415.613
577.69	2418.788
577.92	2412.450
578.14	2420.500
578.36	2425.262
578.58	2433.413
578.80	2424.262
579.03	2420.200
579.25	2435.488
579.47	2455.950
579.69	2440.650
579.91	2453.425
580.14	2442.988
580.36	2445.975
580.58	2438.000
580.80	2447.462
581.02	2460.975
581.24	2451.313
581.47	2448.488
581.69	2459.050
581.91	2452.475
582.13	2460.087
582.35	2463.063
582.57	2482.525
582.79	2459.363
583.02	2450.413
583.24	2473.438
583.46	2459.700
583.68	2463.625
583.90	2462.100
584.12	2472.900
584.35	2476.837
584.57	2460.363
584.79	2471.788
585.01	2470.200
585.23	2465.300
585.45	2466.063
585.67	2467.000
585.90	2477.325
586.12	2450.625
586.34	2484.188
586.56	2475.250
586.78	2492.875
587.00	2482.387
587.22	2478.500
587.44	2479.900
587.67	2478.188
587.89	2472.438
588.11	2493.938
588.33	2480.125
588.55	2472.350
588.77	2479.863
588.99	2472.038
589.21	2458.363
589.43	2486.050
589.66	2493.750
589.88	2490.488
590.10	2497.525
590.32	2484.663
590.54	2468.512
590.76	2464.900
590.98	2478.175
591.20	2482.475
591.42	2475.313
591.64	2470.000
591.87	2490.500
592.09	2481.225
592.31	2497.325
592.53	2489.075
592.75	2484.550
592.97	2495.488
593.19	2489.450
593.41	2488.387
593.63	2487.438
593.85	2469.300
594.07	2486.788
594.29	2472.975
594.52	2474.488
594.74	2484.012
594.96	2459.137
595.18	2467.637
595.40	2464.613
595.62	2465.012
595.84	2463.350
596.06	2462.125
596.28	2469.712
596.50	2456.600
596.72	2445.300
596.94	2448.988
597.16	2450.813
597.38	2459.225
597.60	2458.762
597.82	2449.775
598.05	2450.850
598.27	2434.675
598.49	2432.712
598.71	2433.788
598.93	2437.025
599.15	2438.600
599.37	2427.300
599.59	2425.087
599.81	2422.688
600.03	2422.000
600.25	2420.125
600.47	2418.913
600.69	2404.712
600.91	2413.975
601.13	2401.938
601.35	2401.438
601.57	2400.288
601.79	2395.462
602.01	2399.337
602.23	2379.950
602.45	2382.675
602.67	2374.637
602.89	2358.150
603.11	2369.150
603.33	2351.500
603.55	2373.800
603.77	2373.738
603.99	2361.363
604.21	2345.600
604.43	2336.462
604.65	2333.438
604.87	2342.587
605.09	2330.212
605.31	2335.075
605.53	2321.337
605.75	2304.250
605.97	2292.863
606.19	2300.538
606.41	2301.425
606.63	2298.113
606.85	2294.488
607.07	2281.050
607.29	2280.900
607.51	2278.850
607.73	2267.125
607.95	2264.075
608.17	2256.825
608.39	2243.325
608.61	2245.200
608.83	2241.450
609.05	2237.012
609.27	2218.488
609.49	2225.050
609.71	2216.825
609.93	2231.337
610.15	2213.563
610.37	2211.762
610.59	2181.800
610.81	2193.300
611.03	2172.063
611.24	2174.650
611.46	2167.375
611.68	2162.025
611.90	2159.288
612.12	2142.600
612.34	2128.000
612.56	2137.363
612.78	2126.325
613.00	2125.100
613.22	2121.925
613.44	2125.563
613.66	2103.688
613.88	2094.075
614.10	2096.200
614.32	2080.050
614.54	2092.337
614.75	2081.500
614.97	2074.512
615.19	2068.813
615.41	2057.113
615.63	2051.825
615.85	2049.637
616.07	2044.113
616.29	2036.075
616.51	2026.662
616.73	2021.825
616.95	2008.137
617.17	2004.213
617.38	1991.425
617.60	1991.450
617.82	1988.975
618.04	1971.600
618.26	1971.688
618.48	1946.563
618.70	1959.338
618.92	1936.425
619.14	1944.537
619.36	1942.412
619.57	1935.025
619.79	1928.600
620.01	1912.887
620.23	1902.825
620.45	1907.838
620.67	1905.113
620.89	1889.662
621.11	1889.662
621.33	1892.550
621.54	1874.287
621.76	1864.875
621.98	1852.613
622.20	1852.275
622.42	1834.875
622.64	1845.900
622.86	1839.012
623.07	1817.838
623.29	1814.400
623.51	1803.700
623.73	1800.637
623.95	1788.988
624.17	1790.775
624.39	1784.100
624.60	1785.200
624.82	1776.988
625.04	1763.050
625.26	1765.238
625.48	1752.100
625.70	1757.050
625.92	1746.550
626.13	1736.887
626.35	1729.137
626.57	1711.950
626.79	1714.488
627.01	1697.625
627.23	1694.975
627.44	1692.650
627.66	1689.475
627.88	1683.975
628.10	1672.550
628.32	1661.725
628.54	1654.250
628.75	1648.963
628.97	1637.150
629.19	1645.213
629.41	1638.325
629.63	1630.050
629.84	1618.725
630.06	1607.963
630.28	1603.100
630.50	1605.400
630.72	1593.850
630.94	1591.650
631.15	1586.488
631.37	1582.662
631.59	1573.738
631.81	1554.637
632.03	1549.238
632.24	1551.662
632.46	1552.300
632.68	1536.188
632.90	1541.850
633.11	1527.137
633.33	1522.387
633.55	1515.350
633.77	1513.775
633.99	1498.900
634.20	1509.863
634.42	1493.863
634.64	1492.400
634.86	1478.275
635.08	1474.037
635.29	1471.012
635.51	1458.262
635.73	1461.375
635.95	1446.500
636.16	1445.450
636.38	1449.825
636.60	1427.225
636.82	1425.512
637.03	1414.463
637.25	1417.250
637.47	1408.050
637.69	1410.500
637.90	1400.213
638.12	1387.613
638.34	1381.363
638.56	1378.088
638.77	1371.375
638.99	1361.363
639.21	1361.725
639.43	1356.125
639.64	1347.787
639.86	1350.537
640.08	1333.050
640.30	1327.162
640.51	1323.675
640.73	1310.137
640.95	1313.450
641.17	1305.412
641.38	1312.338
641.60	1304.675
641.82	1299.012
642.03	1289.475
642.25	1280.475
642.47	1266.787
642.69	1268.113
642.90	1268.537
643.12	1261.963
643.34	1255.963
643.55	1254.875
643.77	1249.613
643.99	1238.500
644.21	1226.287
644.42	1222.762
644.64	1219.550
644.86	1213.275
645.07	1209.762
645.29	1204.775
645.51	1198.238
645.73	1189.887
645.94	1185.787
646.16	1188.250
646.38	1179.025
646.59	1177.713
646.81	1168.250
647.03	1157.438
647.24	1150.825
647.46	1150.563
647.68	1139.463
647.89	1133.875
648.11	1130.838
648.33	1126.412
648.54	1125.063
648.76	1117.800
648.98	1115.412
649.19	1104.012
649.41	1093.625
649.63	1087.225
649.84	1084.838
650.06	1078.688
650.28	1079.563
650.49	1074.863
650.71	1069.300
650.93	1055.713
651.14	1053.675
651.36	1051.325
651.58	1045.725
651.79	1047.275
652.01	1037.387
652.23	1038.162
652.44	1030.900
652.66	1026.875
652.88	1017.525
653.09	1012.400
653.31	1006.263
653.52	1008.513
653.74	999.525
653.96	995.213
654.17	985.912
654.39	987.763
654.61	976.813
654.82	967.838
655.04	966.500
655.25	967.787
655.47	960.787
655.69	958.537
655.90	951.925
656.12	941.037
656.34	939.650
656.55	930.875
656.77	926.850
656.98	919.438
657.20	918.612
657.42	917.625
657.63	910.412
657.85	910.975
658.06	898.625
658.28	894.925
658.50	891.050
658.71	882.888
658.93	881.000
659.14	879.237
659.36	875.112
659.58	876.425
659.79	867.225
660.01	862.612
660.22	855.600
660.44	851.325
660.65	846.537
660.87	839.763
661.09	842.150
661.30	839.275
661.52	835.200
661.73	827.400
661.95	820.088
662.16	813.237
662.38	812.237
662.60	809.375
662.81	801.188
663.03	805.588
663.24	798.438
663.46	796.987
663.67	788.550
663.89	784.225
664.11	779.350
664.32	773.100
664.54	770.200
664.75	771.438
664.97	762.412
665.18	760.513
665.40	755.825
665.61	752.125
665.83	747.575
666.04	742.313
666.26	737.612
666.47	738.763
666.69	730.912
666.91	728.325
667.12	725.263
667.34	720.650
667.55	721.088
667.77	712.713
667.98	710.200
668.20	705.638
668.41	700.775
668.63	702.750
668.84	699.375
669.06	691.862
669.27	687.425
669.49	682.813
669.70	676.400
669.92	678.463
670.13	670.787
670.35	671.787
670.56	668.950
670.78	663.925
670.99	662.638
671.21	656.213
671.42	652.037
671.64	650.900
671.85	644.250
672.07	644.425
672.28	640.150
672.50	637.800
672.71	630.650
672.93	631.225
673.14	626.138
673.36	622.475
673.57	618.800
673.79	611.862
674.00	612.787
674.22	610.313
674.43	602.612
674.65	602.938
674.86	598.563
675.08	595.612
675.29	590.725
675.50	589.088
675.72	587.188
675.93	580.987
676.15	581.088
676.36	577.825
676.58	575.025
676.79	571.162
677.01	569.513
677.22	564.000
677.44	560.563
677.65	559.588
677.86	553.612
678.08	553.838
678.29	550.037
678.51	548.063
678.72	546.300
678.94	542.400
679.15	535.787
679.37	536.400
679.58	531.963
679.79	527.912
680.01	525.888
680.22	526.650
680.44	524.475
680.65	519.313
680.87	514.438
681.08	512.263
681.29	508.237
681.51	503.550
681.72	502.900
681.94	500.025
682.15	501.612
682.36	497.200
682.58	496.000
682.79	492.188
683.01	487.125
683.22	487.600
683.43	481.788
683.65	480.612
683.86	478.413
684.08	476.888
684.29	477.013
684.50	472.450
684.72	468.500
684.93	468.475
685.15	462.225
685.36	460.663
685.57	458.950
685.79	459.063
686.00	455.225
686.22	452.800
686.43	451.237
686.64	447.888
686.86	446.888
687.07	444.862
687.28	440.413
687.50	437.400
687.71	434.425
687.93	433.650
688.14	431.200
688.35	427.263
688.57	428.438
688.78	427.763
688.99	423.487
689.21	420.975
689.42	418.163
689.63	417.375
689.85	414.425
690.06	413.337
690.27	412.763
690.49	411.163
690.70	407.587
690.91	405.712
691.13	402.525
691.34	400.100
691.56	397.337
691.77	396.112
691.98	394.825
692.20	392.763
692.41	391.925
692.62	391.438
692.83	388.125
693.05	388.663
693.26	386.212
693.47	382.737
693.69	383.337
693.90	379.325
694.11	375.763
694.33	376.987
694.54	376.225
694.75	375.625
694.97	374.600
695.18	371.112
695.39	368.825
695.61	365.600
695.82	363.587
696.03	360.188
696.24	360.513
696.46	356.150
696.67	355.800
696.88	354.950
697.10	352.763
697.31	351.525
697.52	349.475
697.74	346.725
697.95	348.600
698.16	345.575
698.37	345.138
698.59	343.087
698.80	342.288
699.01	340.212
699.23	337.938
699.44	336.087
699.65	335.388
699.86	333.175
700.08	331.400
700.29	329.862
700.50	328.962
700.71	328.913
700.93	323.862
701.14	325.875
701.35	323.563
701.56	321.150
701.78	319.138
701.99	318.013
702.20	317.263
702.41	317.200
702.63	313.513
702.84	313.538
703.05	312.513
703.26	310.888
703.48	309.462
703.69	308.188
703.90	305.650
704.11	303.400
704.33	303.675
704.54	303.250
704.75	301.413
704.96	299.925
705.18	299.712
705.39	298.038
705.60	296.587
705.81	295.200
706.02	293.087
706.24	293.800
706.45	290.612
706.66	291.038
706.87	288.800
707.09	288.150
707.30	286.538
707.51	285.538
707.72	284.850
707.93	283.825
708.15	282.075
708.36	281.600
708.57	279.212
708.78	280.237
708.99	278.013
709.21	278.525
709.42	277.362
709.63	275.525
709.84	274.563
710.05	273.150
710.27	271.000
710.48	269.600
710.69	270.188
710.90	269.513
711.11	266.850
711.32	267.138
711.54	266.225
711.75	264.525
711.96	263.962
712.17	262.288
712.38	261.712
712.59	259.862
712.81	260.525
713.02	259.675
713.23	259.288
713.44	257.913
713.65	257.075
713.86	255.712
714.08	255.150
714.29	253.288
714.50	252.012
714.71	251.762
714.92	250.813
715.13	249.275
715.34	247.988
715.56	248.475
715.77	246.962
715.98	246.625
716.19	245.962
716.40	245.475
716.61	244.750
716.82	244.163
717.04	242.325
717.25	241.238
717.46	241.050
717.67	240.813
717.88	239.250
718.09	238.100
718.30	237.887
718.51	236.825
718.73	235.850
718.94	235.962
719.15	234.375
719.36	233.525
719.57	232.087
719.78	231.413
719.99	232.238
720.20	231.900
720.41	229.637
720.63	229.438
720.84	229.387
721.05	227.200
721.26	226.550
721.47	226.875
721.68	225.900
721.89	224.775
722.10	224.587
722.31	223.950
722.52	223.413
722.73	223.012
722.95	221.837
723.16	221.163
723.37	219.563
723.58	219.288
723.79	218.425
724.00	219.375
724.21	218.063
724.42	218.375
724.63	215.950
724.84	216.762
725.05	215.200
725.26	214.075
725.47	214.075
725.68	214.288
725.90	212.837
726.11	212.800
726.32	211.875
726.53	211.825
726.74	211.225
726.95	209.650
727.16	209.875
727.37	209.288
727.58	208.038
727.79	207.938
728.00	206.550
728.21	206.087
728.42	205.025
728.63	205.563
728.84	205.512
729.05	204.375
729.26	204.012
729.47	203.175
729.68	203.762
729.89	202.800
730.10	202.150
730.31	200.313
730.52	200.962
730.73	201.150
730.94	200.038
731.15	199.962
731.36	198.475
731.57	198.363
731.78	198.200
731.99	197.113
732.20	196.300
732.41	195.813
732.62	194.250
732.83	195.150
733.04	194.813
733.25	193.700
733.46	193.887
733.67	193.863
733.88	192.363
734.09	191.738
734.30	191.413
734.51	190.925
734.72	191.387
734.93	190.150
735.14	189.988
735.35	189.025
735.56	188.563
735.77	189.663
735.98	189.038
736.19	187.825
736.40	188.038
736.61	187.400
736.82	187.200
737.03	185.950
737.24	185.125
737.45	185.462
737.66	185.337
737.87	185.212
738.08	184.313
738.29	183.563
738.50	183.750
738.71	183.462
738.92	183.025
739.13	181.887
739.34	181.800
739.55	181.175
739.75	180.300
739.96	180.875
740.17	181.087
740.38	180.425
740.59	179.788
740.80	180.025
741.01	179.113
741.22	179.025
741.43	177.925
741.64	177.613
741.85	176.975
742.06	177.038
742.27	177.375
742.48	176.850
742.68	176.063
742.89	176.637
743.10	175.887
743.31	175.288
743.52	175.438
743.73	175.325
743.94	173.538
744.15	174.200
744.36	173.475
744.57	173.525
744.78	172.837
744.98	173.113
745.19	172.887
745.40	172.075
745.61	172.288
745.82	172.038
746.03	171.613
746.24	171.512
746.45	170.587
746.66	170.600
746.86	170.313
747.07	170.238
747.28	170.413
747.49	169.575
747.70	169.738
747.91	169.850
748.12	168.512
748.33	169.087
748.53	168.762
748.74	168.150
748.95	167.462
749.16	167.712
749.37	166.600
749.58	167.575
749.79	167.563
749.99	166.775
750.20	166.850
750.41	166.262
750.62	166.012
750.83	165.813
751.04	165.262
751.25	165.100
751.45	164.400
751.66	164.375
751.87	164.887
752.08	164.525
752.29	164.150
752.50	163.813
752.70	163.400
752.91	162.725
753.12	162.587
753.33	162.675
753.54	162.775
753.75	162.762
753.95	161.350
754.16	161.637
754.37	162.300
754.58	161.863
754.79	160.613
754.99	160.600
755.20	160.738
755.41	160.613
755.62	160.250
755.83	159.350
756.04	159.925
756.24	159.850
756.45	159.500
756.66	159.500
756.87	158.262
757.07	159.212
757.28	158.600
757.49	158.637
757.70	158.600
757.91	158.650
758.11	157.250
758.32	157.400
758.53	157.100
758.74	157.300
758.95	156.400
759.15	156.813
759.36	156.337
759.57	156.725
759.78	156.387
759.98	156.863
760.19	156.700
760.40	156.137
760.61	154.962
760.81	155.613
761.02	155.512
761.23	155.962
761.44	154.975
761.65	155.087
761.85	154.587
762.06	154.600
762.27	154.575
762.48	153.863
762.68	153.825
762.89	154.137
763.10	153.575
763.31	154.375
763.51	153.212
763.72	154.038
763.93	153.025
764.13	153.288
764.34	152.975
764.55	152.900
764.76	152.425
764.96	152.587
765.17	152.175
765.38	152.575
765.59	151.175
765.79	152.375
766.00	152.225
766.21	151.450
766.41	151.000
766.62	151.087
766.83	151.313
767.04	150.788
767.24	151.325
767.45	151.325
767.66	150.788
767.86	150.688
768.07	150.300
768.28	150.125
768.48	150.012
768.69	149.925
768.90	149.850
769.11	149.637
769.31	149.650
769.52	149.850
769.73	149.438
769.93	149.837
770.14	149.250
770.35	149.462
770.55	148.850
770.76	149.288
770.97	148.488
771.17	148.212
771.38	148.462
771.59	148.475
771.79	148.025
772.00	147.712
772.21	148.512
772.41	148.563
772.62	147.913
772.83	147.950
773.03	147.700
773.24	147.788
773.45	147.387
773.65	147.300
773.86	147.313
774.07	147.363
774.27	147.425
774.48	146.425
774.68	146.450
774.89	146.900
775.10	146.238
775.30	146.625
775.51	146.725
775.72	146.300
775.92	146.188
776.13	146.475
776.34	145.700
776.54	145.837
776.75	145.950
776.95	146.000
777.16	145.325
777.37	145.813
777.57	145.462
777.78	145.575
777.99	145.350
778.19	145.288
778.40	145.063
778.60	144.825
778.81	144.675
779.02	145.575
779.22	145.025
779.43	144.650
779.63	144.163
779.84	144.512
780.05	144.500
780.25	144.012
780.46	144.075
780.66	144.137
780.87	143.475
781.07	143.563
781.28	143.075
781.49	144.000
781.69	143.525
781.90	143.788
782.10	143.225
782.31	143.625
782.52	143.000
782.72	143.262
782.93	142.663
783.13	143.350
783.34	143.163
783.54	143.200
783.75	142.387
783.95	142.875
784.16	142.387
784.37	142.038
784.57	141.975
784.78	142.625
784.98	142.163
785.19	142.350
785.39	141.975
785.60	141.863
785.80	142.563
786.01	142.212
786.22	141.975
786.42	142.200
786.63	141.837
786.83	141.875
787.04	141.550
787.24	141.375
787.45	141.563
787.65	141.563
787.86	141.500
788.06	141.600
788.27	141.188
788.47	141.475
788.68	140.925
788.88	140.750
789.09	141.137
789.29	141.275
789.50	140.875
789.70	141.262
789.91	140.550
790.11	140.563
790.32	140.600
790.52	141.188
790.73	140.663
790.93	140.563
791.14	140.450
791.34	140.212
791.55	140.275
791.75	140.625
791.96	140.325
792.16	139.813
792.37	140.038
792.57	139.938
792.78	139.538
792.98	140.125
793.19	140.087
793.39	139.550
793.60	139.825
793.80	139.637
794.01	140.175
794.21	139.913
794.42	139.238
794.62	139.775
794.83	139.150
795.03	140.113
795.23	139.563
795.44	139.475
795.64	139.637
795.85	139.600
796.05	139.425
796.26	139.462
796.46	140.188
796.67	139.788
796.87	139.113
797.08	139.425
797.28	139.525
797.48	139.212
797.69	138.813
797.89	138.875
798.10	138.725
798.30	139.225
798.51	139.225
798.71	139.012
798.91	138.900
799.12	139.025
799.32	138.387
799.53	138.488
799.73	138.275
799.94	138.113
800.14	138.113
800.34	138.837
800.55	138.300
800.75	138.675
800.96	138.300
801.16	137.837
801.36	138.238
801.57	138.712
801.77	138.363
801.98	138.563
802.18	137.950
802.38	137.637
802.59	137.438
802.79	138.113
803.00	137.775
803.20	137.962
803.40	137.512
803.61	138.150
803.81	137.875
804.02	138.813
804.22	137.550
804.42	138.175
804.63	137.750
804.83	137.525
805.03	137.350
805.24	137.438
805.44	137.288
805.64	138.113
805.85	137.625
806.05	137.663
806.26	137.337
806.46	137.200
806.66	136.650
806.87	137.363
807.07	137.163
807.27	137.087
807.48	136.563
807.68	137.238
807.88	137.438
808.09	136.900
808.29	136.900
808.49	137.475
808.70	137.225
808.90	137.413
809.10	136.488
809.31	136.837
809.51	136.663
809.71	137.113
809.92	137.438
810.12	137.063
810.32	136.725
810.53	137.175
810.73	136.600
810.93	137.050
811.14	137.100
811.34	137.137
811.54	136.512
811.75	137.087
811.95	137.375
812.15	137.275
812.36	136.538
812.56	137.113
812.76	136.863
812.96	136.712
813.17	136.438
813.37	136.525
813.57	136.650
813.78	136.800
813.98	136.462
814.18	136.238
814.38	136.925
814.59	136.363
814.79	136.462
814.99	136.488
815.20	136.087
815.40	136.238
815.60	136.363
815.80	136.275
816.01	135.688
816.21	135.825
816.41	136.375
816.61	136.225
816.82	136.575
817.02	136.413
817.22	136.325
817.43	136.100
817.63	135.913
817.83	135.875
818.03	135.413
818.24	135.825
818.44	135.688
818.64	135.988
818.84	135.425
819.05	136.300
819.25	135.875
819.45	136.113
819.65	135.938
819.85	135.800
820.06	136.175
820.26	136.113
820.46	135.438
820.66	136.137
820.87	136.113
821.07	135.813
821.27	135.775
821.47	135.975
821.68	135.837
821.88	136.363
822.08	135.350
822.28	136.025
>>>>>End Spectral Data<<<<<
