OOIBase32 Version 2.0.1.4 Data File
++++++++++++++++++++++++++++++++++++
Date: 11-03-2025, 09:49:09
User: Valued Ocean Optics Customer
Spectrometer Serial Number: HR2B216
Spectrometer Channel: Master
Integration Time (msec): 5
Spectra Averaged: 80
Boxcar Smoothing: 0
Correct for Electrical Dark: Disabled
Time Normalized: Disabled
Dual-beam Reference: Disabled
Reference Channel: Master
Temperature: Not acquired
Spectrometer Type: S2000
ADC Type: HR2000
Number of Pixels in File: 2048
Graph Title: 
>>>>>Begin Spectral Data<<<<<
373.12	0.000
373.35	121.100
373.59	121.938
373.82	122.938
374.06	123.725
374.29	124.688
374.53	125.762
374.76	127.225
375.00	127.850
375.23	128.650
375.47	129.325
375.70	129.475
375.94	130.750
376.17	130.913
376.40	130.163
376.64	131.113
376.87	131.050
377.11	131.475
377.34	130.488
377.58	130.413
377.81	131.063
378.05	130.587
378.28	130.163
378.52	130.438
378.75	130.488
378.99	130.712
379.22	130.700
379.45	131.113
379.69	130.675
379.92	131.550
380.16	131.100
380.39	131.375
380.63	131.538
380.86	131.725
381.10	130.887
381.33	131.462
381.56	131.450
381.80	132.100
382.03	131.137
382.27	132.500
382.50	131.863
382.74	131.988
382.97	131.375
383.21	131.738
383.44	131.663
383.67	132.438
383.91	131.550
384.14	132.087
384.38	131.712
384.61	132.550
384.84	132.200
385.08	132.462
385.31	132.113
385.55	132.313
385.78	132.250
386.02	132.462
386.25	132.113
386.48	131.950
386.72	132.525
386.95	132.625
387.19	132.137
387.42	132.625
387.65	131.900
387.89	132.400
388.12	132.900
388.36	132.875
388.59	132.425
388.82	133.600
389.06	133.075
389.29	132.925
389.53	133.100
389.76	133.413
389.99	132.675
390.23	132.725
390.46	133.325
390.70	133.725
390.93	133.587
391.16	133.637
391.40	133.550
391.63	133.813
391.87	133.413
392.10	133.512
392.33	133.800
392.57	133.438
392.80	133.663
393.03	133.488
393.27	133.300
393.50	133.325
393.74	133.712
393.97	133.613
394.20	133.550
394.44	133.762
394.67	133.775
394.90	133.988
395.14	134.212
395.37	134.100
395.60	134.325
395.84	134.225
396.07	133.788
396.31	134.212
396.54	134.475
396.77	134.712
397.01	134.200
397.24	134.563
397.47	134.387
397.71	134.913
397.94	134.788
398.17	134.525
398.41	134.750
398.64	134.700
398.87	134.225
399.11	134.663
399.34	134.488
399.57	135.575
399.81	135.225
400.04	135.087
400.27	135.063
400.51	135.188
400.74	134.975
400.97	135.325
401.21	135.238
401.44	135.525
401.67	135.413
401.91	135.775
402.14	135.925
402.37	136.075
402.61	135.538
402.84	136.113
403.07	136.500
403.31	136.688
403.54	137.350
403.77	137.800
404.00	138.875
404.24	140.625
404.47	145.550
404.70	164.262
404.94	216.413
405.17	293.837
405.40	431.650
405.64	204.012
405.87	146.575
406.10	141.438
406.34	139.125
406.57	138.775
406.80	138.313
407.03	138.175
407.27	137.512
407.50	138.175
407.73	138.975
407.97	141.475
408.20	146.462
408.43	159.375
408.66	154.163
408.90	140.250
409.13	138.212
409.36	138.100
409.60	137.587
409.83	138.150
410.06	138.113
410.29	138.113
410.53	137.613
410.76	138.075
410.99	137.988
411.22	138.625
411.46	138.262
411.69	139.087
411.92	138.688
412.16	138.637
412.39	139.137
412.62	140.050
412.85	139.087
413.09	139.650
413.32	139.212
413.55	139.925
413.78	139.063
414.02	139.925
414.25	140.050
414.48	140.750
414.71	139.587
414.95	140.150
415.18	140.150
415.41	140.850
415.64	140.700
415.88	141.063
416.11	141.163
416.34	141.113
416.57	141.050
416.80	141.288
417.04	141.750
417.27	141.550
417.50	141.600
417.73	142.975
417.97	142.137
418.20	142.962
418.43	143.038
418.66	142.700
418.90	142.613
419.13	142.925
419.36	143.125
419.59	143.813
419.82	143.813
420.06	143.637
420.29	143.863
420.52	144.475
420.75	144.637
420.98	144.675
421.22	144.225
421.45	145.863
421.68	145.363
421.91	145.600
422.15	145.850
422.38	146.100
422.61	146.188
422.84	147.250
423.07	146.113
423.31	146.450
423.54	147.113
423.77	147.113
424.00	147.087
424.23	148.075
424.46	148.575
424.70	149.363
424.93	148.413
425.16	149.813
425.39	148.500
425.62	149.925
425.86	149.050
426.09	149.913
426.32	150.188
426.55	151.413
426.78	151.038
427.01	150.700
427.25	151.675
427.48	151.988
427.71	151.075
427.94	151.988
428.17	152.250
428.40	153.113
428.64	152.188
428.87	153.038
429.10	153.637
429.33	154.950
429.56	154.725
429.79	155.750
430.03	154.175
430.26	155.163
430.49	154.462
430.72	156.387
430.95	155.313
431.18	157.363
431.42	156.762
431.65	157.200
431.88	158.625
432.11	158.425
432.34	157.512
432.57	158.563
432.80	158.925
433.04	158.637
433.27	160.400
433.50	160.650
433.73	162.300
433.96	162.775
434.19	165.712
434.42	168.113
434.65	172.337
434.89	172.762
435.12	178.075
435.35	188.125
435.58	203.825
435.81	227.438
436.04	353.737
436.27	741.775
436.50	1372.275
436.74	1188.750
436.97	244.262
437.20	186.163
437.43	178.050
437.66	175.613
437.89	173.175
438.12	173.425
438.35	170.788
438.58	170.975
438.82	171.587
439.05	171.550
439.28	169.350
439.51	171.488
439.74	169.637
439.97	169.350
440.20	171.725
440.43	171.325
440.66	172.488
440.89	171.200
441.12	171.250
441.36	171.375
441.59	172.975
441.82	173.613
442.05	172.538
442.28	173.125
442.51	171.712
442.74	172.900
442.97	172.650
443.20	171.063
443.43	171.637
443.66	174.863
443.89	175.275
444.13	172.538
444.36	172.163
444.59	174.837
444.82	175.762
445.05	174.150
445.28	175.125
445.51	177.625
445.74	175.125
445.97	175.163
446.20	176.125
446.43	176.050
446.66	176.875
446.89	175.613
447.12	175.225
447.35	176.150
447.58	179.575
447.81	176.313
448.05	177.488
448.28	176.438
448.51	177.688
448.74	177.900
448.97	177.637
449.20	178.900
449.43	175.512
449.66	177.063
449.89	176.975
450.12	178.337
450.35	174.975
450.58	178.087
450.81	179.438
451.04	181.038
451.27	176.900
451.50	178.625
451.73	177.887
451.96	179.288
452.19	177.550
452.42	178.900
452.65	180.313
452.88	179.413
453.11	178.850
453.34	180.350
453.57	177.825
453.80	181.800
454.03	179.337
454.26	179.038
454.49	178.350
454.72	179.475
454.95	180.150
455.18	180.000
455.41	177.850
455.64	179.950
455.87	179.175
456.10	179.050
456.33	180.488
456.56	180.337
456.79	181.400
457.02	180.188
457.25	177.387
457.48	177.563
457.71	181.063
457.94	182.100
458.17	180.813
458.40	179.175
458.63	178.938
458.86	180.238
459.09	179.975
459.32	179.712
459.55	181.688
459.78	180.212
460.01	178.563
460.24	182.012
460.47	179.488
460.70	179.050
460.93	178.962
461.16	181.800
461.39	180.725
461.62	179.650
461.85	180.225
462.08	180.837
462.31	179.250
462.54	179.788
462.77	178.275
463.00	178.700
463.22	179.613
463.45	179.663
463.68	179.525
463.91	180.738
464.14	179.587
464.37	179.837
464.60	179.175
464.83	179.875
465.06	182.188
465.29	181.150
465.52	180.375
465.75	179.800
465.98	181.200
466.21	180.962
466.44	180.400
466.67	178.875
466.90	181.387
467.12	181.125
467.35	180.575
467.58	180.738
467.81	181.313
468.04	180.887
468.27	179.863
468.50	180.950
468.73	181.688
468.96	179.625
469.19	181.688
469.42	179.363
469.65	180.512
469.87	179.512
470.10	180.413
470.33	181.413
470.56	180.863
470.79	181.325
471.02	180.450
471.25	181.563
471.48	182.325
471.71	182.738
471.94	181.337
472.17	183.738
472.39	183.050
472.62	182.500
472.85	180.775
473.08	183.000
473.31	180.712
473.54	182.813
473.77	182.238
474.00	183.150
474.23	181.575
474.45	182.750
474.68	183.137
474.91	182.613
475.14	182.738
475.37	183.200
475.60	182.137
475.83	182.950
476.06	182.750
476.28	183.613
476.51	183.600
476.74	183.100
476.97	182.725
477.20	183.262
477.43	183.000
477.66	182.725
477.88	184.075
478.11	184.450
478.34	183.988
478.57	185.038
478.80	184.450
479.03	184.950
479.26	185.675
479.48	186.500
479.71	187.125
479.94	188.850
480.17	189.387
480.40	190.150
480.63	192.250
480.86	193.712
481.08	194.775
481.31	197.712
481.54	199.625
481.77	202.887
482.00	204.712
482.23	209.563
482.45	213.387
482.68	217.450
482.91	223.113
483.14	229.425
483.37	237.113
483.60	244.150
483.82	252.500
484.05	263.475
484.28	276.138
484.51	286.087
484.74	294.500
484.96	303.800
485.19	313.400
485.42	323.413
485.65	334.188
485.88	345.587
486.10	361.425
486.33	376.688
486.56	391.163
486.79	402.425
487.02	412.888
487.25	417.837
487.47	413.925
487.70	410.875
487.93	411.237
488.16	409.225
488.38	405.500
488.61	399.138
488.84	393.225
489.07	384.700
489.30	378.575
489.52	368.175
489.75	362.275
489.98	353.388
490.21	348.487
490.44	343.175
490.66	338.550
490.89	334.925
491.12	331.413
491.35	330.300
491.57	328.550
491.80	327.700
492.03	330.813
492.26	333.525
492.49	336.100
492.71	321.913
492.94	313.013
493.17	310.475
493.40	305.800
493.62	303.962
493.85	300.125
494.08	297.350
494.31	293.388
494.53	288.337
494.76	285.900
494.99	283.475
495.22	280.712
495.44	278.150
495.67	274.813
495.90	272.763
496.13	269.712
496.35	267.313
496.58	263.100
496.81	261.313
497.04	258.063
497.26	255.550
497.49	252.225
497.72	251.188
497.95	248.675
498.17	247.387
498.40	244.200
498.63	241.163
498.85	237.775
499.08	235.425
499.31	232.275
499.54	229.575
499.76	226.238
499.99	224.163
500.22	220.563
500.44	218.475
500.67	217.475
500.90	215.137
501.13	212.613
501.35	210.188
501.58	209.500
501.81	207.337
502.03	204.762
502.26	204.087
502.49	202.000
502.72	201.250
502.94	199.512
503.17	198.575
503.40	196.625
503.62	195.512
503.85	193.875
504.08	193.150
504.30	192.563
504.53	191.563
504.76	190.137
504.98	190.012
505.21	189.087
505.44	188.550
505.67	186.813
505.89	188.175
506.12	187.563
506.35	186.563
506.57	186.875
506.80	186.212
507.03	186.725
507.25	185.238
507.48	185.313
507.71	185.425
507.93	185.475
508.16	185.363
508.39	184.538
508.61	184.863
508.84	185.063
509.07	184.863
509.29	185.475
509.52	186.550
509.75	186.063
509.97	186.200
510.20	186.125
510.43	187.075
510.65	185.125
510.88	186.000
511.10	185.625
511.33	186.337
511.56	184.688
511.78	185.813
512.01	185.575
512.24	185.550
512.46	185.762
512.69	185.700
512.92	185.488
513.14	185.188
513.37	185.675
513.59	186.200
513.82	185.000
514.05	184.063
514.27	184.488
514.50	185.363
514.73	184.150
514.95	184.800
515.18	183.725
515.40	183.300
515.63	182.925
515.86	182.900
516.08	182.350
516.31	182.500
516.54	181.163
516.76	181.712
516.99	181.587
517.21	182.650
517.44	182.188
517.67	181.175
517.89	180.212
518.12	180.500
518.34	178.750
518.57	178.663
518.80	178.775
519.02	178.550
519.25	178.250
519.47	178.313
519.70	177.550
519.93	177.200
520.15	176.875
520.38	176.650
520.60	176.587
520.83	175.563
521.05	175.925
521.28	174.950
521.51	174.800
521.73	173.938
521.96	174.075
522.18	173.538
522.41	173.400
522.63	173.325
522.86	172.988
523.09	172.462
523.31	172.025
523.54	172.637
523.76	171.300
523.99	171.887
524.21	171.587
524.44	171.587
524.67	170.800
524.89	171.538
525.12	170.675
525.34	170.525
525.57	170.262
525.79	170.300
526.02	170.200
526.24	170.375
526.47	170.462
526.69	169.887
526.92	170.375
527.15	169.450
527.37	169.725
527.60	170.313
527.82	170.325
528.05	171.337
528.27	170.800
528.50	171.375
528.72	171.925
528.95	170.688
529.17	170.400
529.40	170.000
529.62	169.938
529.85	171.788
530.07	169.925
530.30	170.962
530.52	170.675
530.75	170.738
530.97	170.938
531.20	171.300
531.43	171.550
531.65	172.688
531.88	173.337
532.10	173.762
532.33	175.988
532.55	176.775
532.78	178.525
533.00	183.413
533.23	187.550
533.45	195.962
533.68	204.725
533.90	209.300
534.13	213.738
534.35	219.950
534.58	215.262
534.80	202.712
535.03	198.250
535.25	199.825
535.47	201.563
535.70	205.188
535.92	210.512
536.15	215.000
536.37	221.725
536.60	231.163
536.82	240.012
537.05	251.913
537.27	267.337
537.50	285.788
537.72	310.112
537.95	333.600
538.17	360.175
538.40	387.325
538.62	406.050
538.85	419.138
539.07	430.825
539.29	447.462
539.52	468.775
539.74	507.675
539.97	559.900
540.19	627.388
540.42	715.825
540.64	827.037
540.87	947.362
541.09	1090.675
541.32	1262.637
541.54	1448.425
541.76	1641.787
541.99	1865.037
542.21	2125.525
542.44	2269.475
542.66	2145.825
542.89	1966.475
543.11	1786.338
543.33	1641.412
543.56	1552.200
543.78	1511.162
544.01	1493.875
544.23	1519.238
544.46	1549.825
544.68	1589.375
544.90	1594.725
545.13	1614.613
545.35	1649.000
545.58	1723.800
545.80	1934.387
546.03	2461.188
546.25	2694.800
546.47	2902.137
546.70	3393.188
546.92	3562.063
547.15	3473.975
547.37	2904.813
547.59	1407.563
547.82	1400.063
548.04	1350.162
548.27	1287.625
548.49	1217.912
548.71	1163.613
548.94	1110.988
549.16	1060.300
549.39	1004.025
549.61	952.175
549.83	904.737
550.06	851.775
550.28	811.737
550.50	778.912
550.73	750.612
550.95	710.938
551.18	670.350
551.40	628.838
551.62	592.388
551.85	562.162
552.07	533.550
552.29	504.100
552.52	484.875
552.74	463.413
552.97	443.125
553.19	424.688
553.41	408.313
553.64	389.300
553.86	376.112
554.08	360.763
554.31	346.462
554.53	333.350
554.75	320.000
554.98	307.100
555.20	290.425
555.42	279.150
555.65	268.875
555.87	259.337
556.10	250.538
556.32	244.425
556.54	238.100
556.77	232.512
556.99	227.075
557.21	222.913
557.44	218.775
557.66	214.825
557.88	211.225
558.11	208.400
558.33	204.962
558.55	203.250
558.78	199.688
559.00	197.012
559.22	195.375
559.44	192.350
559.67	189.712
559.89	187.913
560.11	186.325
560.34	185.000
560.56	182.762
560.78	181.375
561.01	179.975
561.23	179.413
561.45	178.337
561.68	177.012
561.90	176.675
562.12	176.238
562.35	175.262
562.57	175.150
562.79	174.813
563.01	173.663
563.24	172.587
563.46	172.137
563.68	171.450
563.91	169.788
564.13	168.700
564.35	168.500
564.57	166.863
564.80	167.012
565.02	165.087
565.24	164.788
565.47	164.637
565.69	164.238
565.91	163.137
566.13	163.262
566.36	162.125
566.58	161.712
566.80	161.125
567.02	161.025
567.25	161.137
567.47	160.575
567.69	161.012
567.92	161.425
568.14	160.750
568.36	161.188
568.58	161.038
568.81	160.938
569.03	160.538
569.25	161.250
569.47	161.050
569.70	160.600
569.92	158.887
570.14	157.975
570.36	156.462
570.59	156.300
570.81	155.288
571.03	154.387
571.25	153.775
571.47	153.238
571.70	152.988
571.92	152.350
572.14	152.350
572.36	152.087
572.59	152.475
572.81	152.725
573.03	152.575
573.25	152.938
573.48	153.663
573.70	153.762
573.92	153.337
574.14	154.575
574.36	155.225
574.59	156.600
574.81	157.150
575.03	158.587
575.25	160.063
575.47	163.175
575.70	166.125
575.92	170.200
576.14	177.150
576.36	193.275
576.59	236.087
576.81	337.337
577.03	402.663
577.25	422.875
577.47	465.825
577.69	642.612
577.92	944.862
578.14	435.487
578.36	250.387
578.58	260.275
578.80	323.550
579.03	412.325
579.25	438.700
579.47	470.413
579.69	549.275
579.91	838.025
580.14	821.388
580.36	343.138
580.58	332.200
580.80	348.475
581.02	387.212
581.24	450.675
581.47	420.063
581.69	339.712
581.91	332.987
582.13	348.700
582.35	370.362
582.57	398.875
582.79	424.025
583.02	450.962
583.24	477.675
583.46	496.212
583.68	513.025
583.90	524.662
584.12	530.963
584.35	534.250
584.57	530.125
584.79	528.200
585.01	517.850
585.23	506.000
585.45	495.550
585.67	485.788
585.90	481.313
586.12	469.675
586.34	465.837
586.56	463.438
586.78	479.813
587.00	512.425
587.22	560.063
587.44	603.125
587.67	640.925
587.89	687.037
588.11	758.162
588.33	753.313
588.55	623.975
588.77	493.638
588.99	424.825
589.21	387.987
589.43	370.450
589.66	357.913
589.88	349.025
590.10	343.150
590.32	340.438
590.54	338.275
590.76	340.300
590.98	347.188
591.20	356.050
591.42	364.275
591.64	373.550
591.87	386.313
592.09	398.487
592.31	416.913
592.53	438.638
592.75	466.638
592.97	504.025
593.19	539.138
593.41	571.963
593.63	596.900
593.85	604.938
594.07	600.175
594.29	550.838
594.52	483.063
594.74	419.900
594.96	369.550
595.18	340.000
595.40	317.350
595.62	303.513
595.84	295.388
596.06	290.150
596.28	287.288
596.50	286.538
596.72	285.563
596.94	285.875
597.16	287.350
597.38	288.475
597.60	287.975
597.82	289.487
598.05	292.275
598.27	297.237
598.49	309.313
598.71	323.888
598.93	343.063
599.15	365.288
599.37	387.400
599.59	407.612
599.81	424.688
600.03	435.650
600.25	436.950
600.47	429.638
600.69	410.313
600.91	384.225
601.13	355.550
601.35	329.850
601.57	307.450
601.79	290.325
602.01	276.925
602.23	263.325
602.45	254.850
602.67	247.563
602.89	240.163
603.11	235.663
603.33	232.125
603.55	230.775
603.77	231.738
603.99	234.012
604.21	236.175
604.43	239.125
604.65	242.863
604.87	245.637
605.09	249.450
605.31	251.688
605.53	254.012
605.75	255.750
605.97	258.900
606.19	264.813
606.41	269.788
606.63	275.962
606.85	284.188
607.07	293.450
607.29	303.950
607.51	316.500
607.73	330.438
607.95	347.675
608.17	367.163
608.39	388.013
608.61	417.800
608.83	450.788
609.05	490.350
609.27	537.125
609.49	601.213
609.71	678.975
609.93	791.475
610.15	927.388
610.37	1127.863
610.59	1405.613
610.81	1861.463
611.03	2468.012
611.24	3160.163
611.46	3419.000
611.68	3460.488
611.90	3497.413
612.12	3525.725
612.34	3518.200
612.56	3460.525
612.78	3382.575
613.00	3103.063
613.22	1952.575
613.44	1771.800
613.66	1651.713
613.88	1593.975
614.10	1540.762
614.32	1458.475
614.54	1418.313
614.75	1384.975
614.97	1356.813
615.19	1315.137
615.41	1250.400
615.63	1168.262
615.85	1071.412
616.07	962.600
616.29	857.287
616.51	767.263
616.73	693.175
616.95	631.313
617.17	583.550
617.38	544.150
617.60	514.600
617.82	491.563
618.04	468.638
618.26	451.612
618.48	434.388
618.70	426.550
618.92	415.975
619.14	412.138
619.36	405.125
619.57	403.600
619.79	402.450
620.01	404.450
620.23	408.850
620.45	418.087
620.67	427.425
620.89	435.813
621.11	445.263
621.33	454.775
621.54	459.775
621.76	460.337
621.98	458.050
622.20	455.000
622.42	448.625
622.64	450.125
622.86	452.462
623.07	455.175
623.29	463.513
623.51	471.313
623.73	485.375
623.95	494.138
624.17	502.112
624.39	501.513
624.60	503.288
624.82	502.850
625.04	500.888
625.26	506.500
625.48	505.650
625.70	510.237
625.92	512.438
626.13	515.938
626.35	520.287
626.57	517.862
626.79	519.075
627.01	512.525
627.23	508.400
627.44	503.263
627.66	496.487
627.88	486.813
628.10	477.400
628.32	467.663
628.54	458.125
628.75	451.575
628.97	446.837
629.19	445.337
629.41	443.650
629.63	445.075
629.84	451.862
630.06	463.450
630.28	486.337
630.50	525.713
630.72	579.213
630.94	647.450
631.15	710.388
631.37	757.575
631.59	775.013
631.81	767.862
632.03	721.275
632.24	626.375
632.46	510.975
632.68	411.825
632.90	345.650
633.11	302.325
633.33	274.138
633.55	255.738
633.77	243.613
633.99	234.025
634.20	227.387
634.42	222.475
634.64	218.938
634.86	215.462
635.08	212.262
635.29	210.700
635.51	208.063
635.73	206.988
635.95	205.050
636.16	202.875
636.38	201.300
636.60	199.038
636.82	197.100
637.03	196.075
637.25	194.413
637.47	193.275
637.69	191.337
637.90	191.212
638.12	189.475
638.34	188.350
638.56	187.175
638.77	186.000
638.99	185.512
639.21	184.325
639.43	183.400
639.64	182.587
639.86	182.000
640.08	181.938
640.30	180.837
640.51	180.738
640.73	180.525
640.95	180.375
641.17	181.462
641.38	181.488
641.60	181.375
641.82	182.012
642.03	182.175
642.25	182.700
642.47	182.188
642.69	183.038
642.90	183.025
643.12	183.650
643.34	183.712
643.55	185.438
643.77	185.625
643.99	186.137
644.21	186.137
644.42	186.125
644.64	187.125
644.86	187.425
645.07	187.275
645.29	187.188
645.51	187.700
645.73	186.725
645.94	186.350
646.16	187.525
646.38	186.012
646.59	186.063
646.81	185.800
647.03	185.300
647.24	185.462
647.46	186.238
647.68	185.475
647.89	186.850
648.11	187.137
648.33	188.075
648.54	189.175
648.76	190.538
648.98	191.938
649.19	193.325
649.41	196.500
649.63	201.150
649.84	208.925
650.06	223.762
650.28	249.413
650.49	282.925
650.71	314.737
650.93	330.888
651.14	342.212
651.36	346.063
651.58	325.175
651.79	289.212
652.01	255.762
652.23	237.675
652.44	227.675
652.66	219.775
652.88	216.313
653.09	221.225
653.31	227.925
653.52	234.438
653.74	237.425
653.96	237.600
654.17	230.200
654.39	221.675
654.61	210.725
654.82	205.262
655.04	201.025
655.25	199.012
655.47	197.012
655.69	195.675
655.90	194.887
656.12	193.975
656.34	193.150
656.55	191.475
656.77	192.137
656.98	192.762
657.20	192.650
657.42	193.613
657.63	197.238
657.85	201.775
658.06	204.300
658.28	208.200
658.50	207.625
658.71	205.113
658.93	200.387
659.14	194.350
659.36	187.288
659.58	182.938
659.79	180.212
660.01	178.450
660.22	177.113
660.44	176.125
660.65	175.850
660.87	173.900
661.09	173.575
661.30	173.738
661.52	175.188
661.73	177.688
661.95	185.400
662.16	198.150
662.38	218.500
662.60	243.663
662.81	261.250
663.03	270.775
663.24	270.538
663.46	260.925
663.67	237.825
663.89	217.988
664.11	206.262
664.32	197.925
664.54	193.563
664.75	190.288
664.97	184.863
665.18	182.262
665.40	179.525
665.61	177.775
665.83	177.025
666.04	175.913
666.26	175.225
666.47	176.238
666.69	175.512
666.91	175.887
667.12	176.100
667.34	176.800
667.55	177.350
667.77	177.100
667.98	178.387
668.20	177.350
668.41	175.988
668.63	176.438
668.84	174.475
669.06	174.363
669.27	172.675
669.49	172.387
669.70	172.337
669.92	172.500
670.13	171.413
670.35	171.788
670.56	171.525
670.78	170.863
670.99	170.875
671.21	171.300
671.42	170.512
671.64	170.962
671.85	171.650
672.07	171.887
672.28	171.275
672.50	172.087
672.71	170.750
672.93	169.450
673.14	168.950
673.36	168.762
673.57	168.012
673.79	167.450
674.00	167.012
674.22	166.887
674.43	166.475
674.65	166.375
674.86	166.000
675.08	165.100
675.29	164.988
675.50	164.450
675.72	163.712
675.93	163.938
676.15	163.512
676.36	163.163
676.58	162.962
676.79	162.137
677.01	162.050
677.22	162.500
677.44	163.087
677.65	162.587
677.86	162.875
678.08	163.113
678.29	162.500
678.51	163.438
678.72	163.475
678.94	164.288
679.15	165.325
679.37	166.125
679.58	167.512
679.79	167.675
680.01	169.600
680.22	171.625
680.44	172.100
680.65	174.238
680.87	175.087
681.08	176.075
681.29	176.438
681.51	176.087
681.72	175.875
681.94	174.925
682.15	173.375
682.36	172.225
682.58	170.875
682.79	169.050
683.01	167.413
683.22	166.938
683.43	166.262
683.65	165.200
683.86	165.512
684.08	164.950
684.29	164.538
684.50	164.313
684.72	164.375
684.93	165.637
685.15	164.850
685.36	167.012
685.57	167.325
685.79	168.738
686.00	170.375
686.22	172.688
686.43	175.000
686.64	178.613
686.86	184.175
687.07	191.212
687.28	200.600
687.50	213.800
687.71	228.988
687.93	242.575
688.14	252.150
688.35	256.038
688.57	252.350
688.78	241.225
688.99	225.313
689.21	210.288
689.42	195.600
689.63	184.962
689.85	177.012
690.06	170.462
690.27	165.863
690.49	161.837
690.70	158.150
690.91	156.475
691.13	165.500
691.34	166.712
691.56	161.225
691.77	160.188
691.98	151.700
692.20	149.925
692.41	149.000
692.62	149.788
692.83	150.438
693.05	152.125
693.26	154.425
693.47	160.475
693.69	173.500
693.90	198.738
694.11	230.100
694.33	243.863
694.54	235.488
694.75	212.913
694.97	184.875
695.18	166.488
695.39	157.325
695.61	151.663
695.82	148.337
696.03	147.288
696.24	146.938
696.46	147.450
696.67	146.113
696.88	146.850
697.10	146.975
697.31	146.087
697.52	144.150
697.74	143.175
697.95	142.675
698.16	141.500
698.37	141.988
698.59	142.200
698.80	141.837
699.01	142.613
699.23	141.688
699.44	142.688
699.65	142.563
699.86	142.512
700.08	142.688
700.29	143.750
700.50	143.550
700.71	143.712
700.93	143.550
701.14	144.425
701.35	144.425
701.56	144.688
701.78	145.025
701.99	145.863
702.20	146.300
702.41	147.288
702.63	147.563
702.84	148.400
703.05	149.137
703.26	149.762
703.48	151.125
703.69	153.363
703.90	155.575
704.11	159.875
704.33	165.250
704.54	172.288
704.75	174.225
704.96	174.887
705.18	173.475
705.39	174.762
705.60	180.850
705.81	190.038
706.02	199.875
706.24	216.125
706.45	234.262
706.66	257.388
706.87	284.712
707.09	317.075
707.30	350.737
707.51	375.938
707.72	389.975
707.93	380.237
708.15	350.925
708.36	311.263
708.57	274.163
708.78	254.400
708.99	255.813
709.21	298.612
709.42	394.375
709.63	492.325
709.84	501.438
710.05	429.725
710.27	325.337
710.48	247.825
710.69	207.725
710.90	190.288
711.11	182.738
711.32	182.150
711.54	186.000
711.75	193.875
711.96	207.012
712.17	235.550
712.38	288.775
712.59	353.100
712.81	389.250
713.02	401.525
713.23	394.100
713.44	352.000
713.65	291.075
713.86	231.038
714.08	192.875
714.29	173.925
714.50	163.637
714.71	157.337
714.92	153.387
715.13	150.525
715.34	147.875
715.56	146.387
715.77	145.075
715.98	143.913
716.19	142.775
716.40	142.512
716.61	141.950
716.82	141.550
717.04	141.375
717.25	140.887
717.46	139.962
717.67	140.025
717.88	140.137
718.09	140.063
718.30	139.525
718.51	139.625
718.73	139.087
718.94	138.900
719.15	138.738
719.36	138.762
719.57	138.462
719.78	139.038
719.99	138.788
720.20	139.000
720.41	139.063
720.63	139.038
720.84	138.762
721.05	138.488
721.26	137.887
721.47	138.950
721.68	137.988
721.89	138.300
722.10	138.813
722.31	138.762
722.52	138.475
722.73	138.825
722.95	138.400
723.16	138.288
723.37	137.975
723.58	137.688
723.79	137.738
724.00	137.587
724.21	137.887
724.42	137.675
724.63	137.150
724.84	138.012
725.05	137.450
725.26	137.575
725.47	137.500
725.68	137.363
725.90	137.800
726.11	137.475
726.32	136.750
726.53	137.475
726.74	137.275
726.95	138.087
727.16	138.063
727.37	137.850
727.58	137.450
727.79	138.100
728.00	137.613
728.21	137.988
728.42	138.087
728.63	138.063
728.84	137.438
729.05	137.225
729.26	137.137
729.47	137.863
729.68	137.400
729.89	137.962
730.10	137.813
730.31	139.700
730.52	149.863
730.73	157.475
730.94	154.337
731.15	148.188
731.36	142.150
731.57	145.387
731.78	144.462
731.99	143.450
732.20	138.350
732.41	136.863
732.62	136.700
732.83	137.012
733.04	138.475
733.25	142.425
733.46	142.425
733.67	140.887
733.88	137.675
734.09	136.313
734.30	135.962
734.51	136.038
734.72	135.975
734.93	135.525
735.14	135.637
735.35	136.038
735.56	135.675
735.77	135.712
735.98	135.587
736.19	135.762
736.40	135.363
736.61	135.238
736.82	135.762
737.03	135.625
737.24	135.350
737.45	135.275
737.66	135.850
737.87	135.675
738.08	135.100
738.29	135.488
738.50	135.012
738.71	135.275
738.92	137.438
739.13	139.325
739.34	138.438
739.55	136.900
739.75	135.188
739.96	135.488
740.17	135.500
740.38	135.288
740.59	135.150
740.80	136.087
741.01	135.850
741.22	136.438
741.43	135.988
741.64	136.950
741.85	136.800
742.06	137.650
742.27	138.438
742.48	139.600
742.68	139.900
742.89	140.750
743.10	141.475
743.31	142.738
743.52	142.663
743.73	142.188
743.94	141.150
744.15	139.688
744.36	138.587
744.57	137.587
744.78	135.900
744.98	136.238
745.19	135.475
745.40	135.587
745.61	135.113
745.82	135.313
746.03	135.125
746.24	135.563
746.45	135.150
746.66	135.775
746.86	136.538
747.07	137.313
747.28	138.325
747.49	138.550
747.70	138.163
747.91	137.238
748.12	135.875
748.33	135.538
748.53	135.462
748.74	135.288
748.95	134.262
749.16	134.288
749.37	134.387
749.58	134.650
749.79	134.137
749.99	134.425
750.20	134.212
750.41	134.512
750.62	134.688
750.83	136.425
751.04	138.613
751.25	138.613
751.45	136.325
751.66	135.550
751.87	136.438
752.08	137.988
752.29	137.875
752.50	136.038
752.70	135.462
752.91	134.887
753.12	134.350
753.33	135.137
753.54	135.212
753.75	135.087
753.95	134.913
754.16	135.012
754.37	134.325
754.58	134.788
754.79	134.125
754.99	134.512
755.20	134.488
755.41	133.663
755.62	133.788
755.83	134.275
756.04	133.712
756.24	133.938
756.45	133.712
756.66	134.175
756.87	134.025
757.07	133.900
757.28	134.150
757.49	134.625
757.70	134.200
757.91	134.712
758.11	134.613
758.32	134.050
758.53	133.825
758.74	134.625
758.95	134.000
759.15	134.288
759.36	134.275
759.57	134.225
759.78	133.913
759.98	134.387
760.19	134.538
760.40	134.688
760.61	134.150
760.81	134.000
761.02	134.450
761.23	134.425
761.44	134.200
761.65	134.650
761.85	134.775
762.06	134.150
762.27	134.050
762.48	134.400
762.68	134.262
762.89	134.175
763.10	133.800
763.31	134.150
763.51	134.012
763.72	134.913
763.93	138.587
764.13	146.113
764.34	144.738
764.55	139.750
764.76	137.012
764.96	135.600
765.17	135.025
765.38	134.800
765.59	134.625
765.79	134.075
766.00	134.413
766.21	134.512
766.41	133.613
766.62	133.863
766.83	134.413
767.04	133.800
767.24	133.850
767.45	134.238
767.66	134.350
767.86	134.225
768.07	133.825
768.28	134.675
768.48	134.100
768.69	134.000
768.90	134.125
769.11	134.175
769.31	133.275
769.52	133.700
769.73	133.675
769.93	134.225
770.14	134.212
770.35	134.262
770.55	134.038
770.76	133.925
770.97	134.188
771.17	134.225
771.38	133.700
771.59	134.137
771.79	133.938
772.00	134.137
772.21	133.775
772.41	134.200
772.62	134.325
772.83	136.413
773.03	137.700
773.24	137.613
773.45	136.825
773.65	136.625
773.86	135.512
774.07	134.900
774.27	134.375
774.48	134.600
774.68	134.212
774.89	134.325
775.10	134.262
775.30	134.500
775.51	133.725
775.72	133.913
775.92	134.025
776.13	134.087
776.34	133.400
776.54	133.450
776.75	133.125
776.95	133.550
777.16	133.125
777.37	133.863
777.57	133.863
777.78	133.863
777.99	133.087
778.19	133.825
778.40	133.512
778.60	133.863
778.81	133.587
779.02	133.475
779.22	133.250
779.43	133.550
779.63	132.837
779.84	133.837
780.05	133.663
780.25	133.913
780.46	133.238
780.66	133.700
780.87	133.438
781.07	134.075
781.28	133.363
781.49	134.000
781.69	133.675
781.90	133.725
782.10	133.788
782.31	133.800
782.52	133.788
782.72	133.950
782.93	133.488
783.13	133.375
783.34	133.250
783.54	133.538
783.75	133.325
783.95	133.212
784.16	133.550
784.37	133.887
784.57	133.500
784.78	133.063
784.98	133.225
785.19	133.663
785.39	133.125
785.60	133.500
785.80	133.400
786.01	133.550
786.22	132.975
786.42	133.350
786.63	133.313
786.83	133.188
787.04	133.413
787.24	133.038
787.45	133.525
787.65	133.813
787.86	133.238
788.06	132.863
788.27	133.637
788.47	133.775
788.68	133.125
788.88	133.675
789.09	133.387
789.29	133.175
789.50	132.962
789.70	133.300
789.91	133.450
790.11	133.350
790.32	133.450
790.52	133.500
790.73	133.587
790.93	133.688
791.14	133.337
791.34	133.313
791.55	133.288
791.75	133.637
791.96	133.012
792.16	133.700
792.37	133.563
792.57	134.050
792.78	132.788
792.98	133.538
793.19	133.413
793.39	133.875
793.60	133.413
793.80	133.075
794.01	133.313
794.21	133.625
794.42	133.387
794.62	133.525
794.83	133.100
795.03	133.975
795.23	135.125
795.44	136.512
795.64	134.887
795.85	134.488
796.05	133.450
796.26	134.038
796.46	134.688
796.67	133.425
796.87	133.075
797.08	133.150
797.28	133.500
797.48	133.163
797.69	133.150
797.89	133.762
798.10	133.738
798.30	133.688
798.51	133.450
798.71	133.550
798.91	133.250
799.12	133.250
799.32	133.150
799.53	134.163
799.73	133.512
799.94	133.587
800.14	133.375
800.34	134.038
800.55	134.137
800.75	133.625
800.96	133.837
801.16	135.288
801.36	134.875
801.57	134.475
801.77	134.712
801.98	136.600
802.18	136.688
802.38	135.000
802.59	134.363
802.79	134.750
803.00	134.350
803.20	133.875
803.40	133.600
803.61	134.275
803.81	134.250
804.02	134.413
804.22	134.063
804.42	134.538
804.63	134.300
804.83	134.550
805.03	134.012
805.24	134.738
805.44	134.712
805.64	134.675
805.85	134.400
806.05	134.962
806.26	134.650
806.46	134.800
806.66	134.375
806.87	134.488
807.07	134.475
807.27	135.025
807.48	134.175
807.68	135.488
807.88	135.200
808.09	135.712
808.29	135.975
808.49	136.650
808.70	136.613
808.90	137.850
809.10	139.000
809.31	142.288
809.51	184.788
809.71	421.175
809.92	460.725
810.12	285.513
810.32	235.262
810.53	211.100
810.73	198.600
810.93	185.600
811.14	156.137
811.34	144.625
811.54	140.125
811.75	139.587
811.95	142.938
812.15	141.900
812.36	138.337
812.56	138.038
812.76	137.325
812.96	136.587
813.17	135.762
813.37	135.425
813.57	134.525
813.78	135.087
813.98	134.250
814.18	134.625
814.38	134.337
814.59	134.438
814.79	134.300
814.99	134.337
815.20	134.425
815.40	133.925
815.60	134.550
815.80	141.663
816.01	153.650
816.21	151.313
816.41	144.675
816.61	142.288
816.82	141.087
817.02	139.700
817.22	137.887
817.43	136.012
817.63	134.512
817.83	134.300
818.03	134.337
818.24	134.262
818.44	134.163
818.64	134.300
818.84	133.575
819.05	134.325
819.25	133.975
819.45	133.913
819.65	134.175
819.85	134.375
820.06	134.350
820.26	134.250
820.46	134.262
820.66	134.613
820.87	134.887
821.07	134.600
821.27	134.913
821.47	134.813
821.68	134.313
821.88	135.038
822.08	134.012
822.28	134.400
>>>>>End Spectral Data<<<<<
